#xlabel Wavelength (nm)
#ylabel Spectrometer Array Counts
#title Exposure time is 9300 ms
## lambda	counts
 349.8	16623
 350.3	16862
 350.8	17087
 351.3	17264
 351.9	17351
 352.4	17465
 352.9	17547
 353.4	17518
 354.0	17529
 354.5	17574
 355.0	17590
 355.5	17605
 356.0	17570
 356.6	17541
 357.1	17586
 357.6	17571
 358.1	17595
 358.7	17533
 359.2	17553
 359.7	17564
 360.2	17596
 360.8	17560
 361.3	17648
 361.8	17591
 362.3	17617
 362.9	17574
 363.4	17646
 363.9	17641
 364.4	17669
 364.9	17586
 365.5	17649
 366.0	17625
 366.5	17588
 367.0	17630
 367.6	17647
 368.1	17644
 368.6	17582
 369.1	17633
 369.7	17682
 370.2	17603
 370.7	17596
 371.2	17645
 371.8	17689
 372.3	17615
 372.8	17683
 373.3	17695
 373.9	17639
 374.4	17650
 374.9	17693
 375.5	17597
 376.0	17709
 376.5	17672
 377.0	17697
 377.6	17632
 378.1	17704
 378.6	17642
 379.1	17644
 379.7	17628
 380.2	17688
 380.7	17688
 381.2	17641
 381.8	17627
 382.3	17669
 382.8	17647
 383.4	17685
 383.9	17638
 384.4	17778
 384.9	17690
 385.5	17711
 386.0	17703
 386.5	17775
 387.1	17704
 387.6	17716
 388.1	17720
 388.6	17733
 389.2	17716
 389.7	17739
 390.2	17711
 390.8	17789
 391.3	17754
 391.8	17749
 392.3	17733
 392.9	17721
 393.4	17711
 393.9	17775
 394.5	17774
 395.0	17717
 395.5	17738
 396.0	17734
 396.6	17703
 397.1	17781
 397.6	17779
 398.2	17774
 398.7	17776
 399.2	17861
 399.8	17739
 400.3	17795
 400.8	17839
 401.3	17816
 401.9	17827
 402.4	17840
 402.9	17824
 403.5	17845
 404.0	17830
 404.5	17785
 405.1	17784
 405.6	17874
 406.1	17838
 406.7	17842
 407.2	17845
 407.7	17924
 408.2	17902
 408.8	17901
 409.3	17930
 409.8	17968
 410.4	17925
 410.9	17920
 411.4	17875
 412.0	17929
 412.5	17970
 413.0	17925
 413.6	17955
 414.1	17917
 414.6	17948
 415.2	17975
 415.7	17918
 416.2	17963
 416.8	17940
 417.3	17922
 417.8	17938
 418.4	18017
 418.9	17959
 419.4	18081
 420.0	17968
 420.5	18028
 421.0	17971
 421.5	18047
 422.1	18026
 422.6	18070
 423.1	18085
 423.7	18056
 424.2	18045
 424.7	18079
 425.3	18047
 425.8	18060
 426.3	18051
 426.9	18105
 427.4	18040
 427.9	18143
 428.5	18083
 429.0	18117
 429.6	18069
 430.1	18145
 430.6	18136
 431.2	18076
 431.7	18159
 432.2	18126
 432.8	18103
 433.3	18196
 433.8	18192
 434.4	18161
 434.9	18171
 435.4	18207
 436.0	18183
 436.5	18175
 437.0	18239
 437.6	18213
 438.1	18259
 438.6	18259
 439.2	18283
 439.7	18272
 440.2	18221
 440.8	18246
 441.3	18249
 441.8	18251
 442.4	18211
 442.9	18243
 443.5	18274
 444.0	18262
 444.5	18289
 445.1	18211
 445.6	18248
 446.1	18256
 446.7	18267
 447.2	18287
 447.7	18270
 448.3	18335
 448.8	18289
 449.3	18320
 449.9	18261
 450.4	18352
 450.9	18382
 451.5	18381
 452.0	18345
 452.6	18369
 453.1	18407
 453.6	18411
 454.2	18301
 454.7	18371
 455.2	18386
 455.8	18423
 456.3	18365
 456.8	18485
 457.4	18409
 457.9	18417
 458.5	18464
 459.0	18418
 459.5	18458
 460.1	18411
 460.6	18454
 461.1	18438
 461.7	18487
 462.2	18439
 462.7	18478
 463.3	18406
 463.8	18477
 464.4	18532
 464.9	18481
 465.4	18534
 466.0	18438
 466.5	18510
 467.0	18445
 467.6	18507
 468.1	18589
 468.7	18513
 469.2	18450
 469.7	18533
 470.3	18513
 470.8	18545
 471.3	18523
 471.9	18478
 472.4	18532
 473.0	18559
 473.5	18575
 474.0	18565
 474.6	18569
 475.1	18563
 475.6	18621
 476.2	18632
 476.7	18611
 477.3	18667
 477.8	18605
 478.3	18539
 478.9	18730
 479.4	18615
 479.9	18625
 480.5	18608
 481.0	18629
 481.6	18651
 482.1	18706
 482.6	18687
 483.2	18687
 483.7	18794
 484.2	18730
 484.8	18576
 485.3	18667
 485.9	18739
 486.4	18700
 486.9	18714
 487.5	18681
 488.0	18678
 488.6	18733
 489.1	18741
 489.6	18795
 490.2	18782
 490.7	18743
 491.2	18716
 491.8	18764
 492.3	18721
 492.9	18765
 493.4	18775
 493.9	18789
 494.5	18791
 495.0	18858
 495.6	18778
 496.1	18785
 496.6	18844
 497.2	18767
 497.7	18725
 498.2	18815
 498.8	18829
 499.3	18747
 499.9	18809
 500.4	18800
 500.9	18789
 501.5	18775
 502.0	18841
 502.6	18815
 503.1	18898
 503.6	18864
 504.2	18813
 504.7	18817
 505.2	18880
 505.8	18874
 506.3	18939
 506.9	18946
 507.4	18911
 507.9	18889
 508.5	18913
 509.0	18959
 509.6	19013
 510.1	18986
 510.6	19021
 511.2	19041
 511.7	19019
 512.2	19084
 512.8	19103
 513.3	19064
 513.9	19051
 514.4	19115
 514.9	19181
 515.5	19085
 516.0	19153
 516.6	19126
 517.1	19172
 517.6	19154
 518.2	19131
 518.7	19075
 519.3	19123
 519.8	19164
 520.3	19159
 520.9	19115
 521.4	19118
 521.9	19177
 522.5	19100
 523.0	19123
 523.6	19157
 524.1	19016
 524.6	19064
 525.2	19091
 525.7	19124
 526.3	19044
 526.8	19129
 527.3	19084
 527.9	19109
 528.4	19089
 528.9	19147
 529.5	19163
 530.0	19143
 530.6	19187
 531.1	19191
 531.6	19113
 532.2	19224
 532.7	19181
 533.3	19213
 533.8	19335
 534.3	19363
 534.9	19363
 535.4	19308
 536.0	19381
 536.5	19413
 537.0	19380
 537.6	19405
 538.1	19452
 538.6	19471
 539.2	19411
 539.7	19428
 540.3	19526
 540.8	19480
 541.3	19443
 541.9	19482
 542.4	19483
 543.0	19545
 543.5	19495
 544.0	19478
 544.6	19529
 545.1	19529
 545.6	19563
 546.2	19546
 546.7	19465
 547.3	19521
 547.8	19497
 548.3	19544
 548.9	19469
 549.4	19471
 550.0	19431
 550.5	19504
 551.0	19540
 551.6	19491
 552.1	19513
 552.6	19505
 553.2	19487
 553.7	19464
 554.3	19495
 554.8	19567
 555.3	19431
 555.9	19498
 556.4	19459
 556.9	19543
 557.5	19569
 558.0	19524
 558.6	19505
 559.1	19574
 559.6	19560
 560.2	19559
 560.7	19553
 561.3	19533
 561.8	19509
 562.3	19620
 562.9	19603
 563.4	19634
 563.9	19625
 564.5	19630
 565.0	19611
 565.6	19637
 566.1	19635
 566.6	19636
 567.2	19619
 567.7	19721
 568.2	19633
 568.8	19648
 569.3	19616
 569.9	19685
 570.4	19677
 570.9	19647
 571.5	19638
 572.0	19636
 572.5	19684
 573.1	19632
 573.6	19683
 574.1	19670
 574.7	19673
 575.2	19644
 575.8	19673
 576.3	19749
 576.8	19716
 577.4	19721
 577.9	19742
 578.4	19699
 579.0	19711
 579.5	19796
 580.1	19731
 580.6	19734
 581.1	19806
 581.7	19823
 582.2	19757
 582.7	19806
 583.3	19850
 583.8	19812
 584.3	19762
 584.9	19828
 585.4	19831
 586.0	19801
 586.5	19834
 587.0	19794
 587.6	19864
 588.1	19817
 588.6	19884
 589.2	19829
 589.7	19843
 590.2	19831
 590.8	19827
 591.3	19847
 591.9	19803
 592.4	19859
 592.9	19799
 593.5	19791
 594.0	19788
 594.5	19802
 595.1	19779
 595.6	19759
 596.1	19809
 596.7	19777
 597.2	19809
 597.7	19753
 598.3	19767
 598.8	19737
 599.3	19747
 599.9	19733
 600.4	19726
 601.0	19729
 601.5	19714
 602.0	19704
 602.6	19654
 603.1	19674
 603.6	19677
 604.2	19769
 604.7	19675
 605.2	19745
 605.8	19667
 606.3	19683
 606.8	19754
 607.4	19729
 607.9	19760
 608.4	19713
 609.0	19743
 609.5	19787
 610.0	19753
 610.6	19852
 611.1	19767
 611.6	19781
 612.2	19784
 612.7	19848
 613.2	19831
 613.8	19767
 614.3	19797
 614.8	19845
 615.4	19776
 615.9	19857
 616.4	19910
 617.0	19863
 617.5	19949
 618.0	19958
 618.6	19883
 619.1	19918
 619.6	19990
 620.2	19986
 620.7	20035
 621.2	20003
 621.8	20037
 622.3	20062
 622.8	20019
 623.4	20052
 623.9	20107
 624.4	20081
 625.0	20073
 625.5	20088
 626.0	20096
 626.6	20141
 627.1	20131
 627.6	20086
 628.2	20048
 628.7	20087
 629.2	20065
 629.8	20097
 630.3	20106
 630.8	20093
 631.4	20071
 631.9	20103
 632.4	19998
 632.9	20013
 633.5	20011
 634.0	19975
 634.5	20055
 635.1	19983
 635.6	19963
 636.1	19944
 636.7	20002
 637.2	19989
 637.7	19913
 638.3	19991
 638.8	19997
 639.3	20001
 639.8	19959
 640.4	19974
 640.9	19995
 641.4	19904
 642.0	19893
 642.5	19916
 643.0	19890
 643.6	19967
 644.1	19927
 644.6	19935
 645.1	19973
 645.7	19951
 646.2	19917
 646.7	19931
 647.3	19963
 647.8	19963
 648.3	19940
 648.9	19976
 649.4	19895
 649.9	19963
 650.4	19970
 651.0	20002
 651.5	20022
 652.0	20061
 652.6	20007
 653.1	20082
 653.6	20001
 654.1	20076
 654.7	20022
 655.2	20099
 655.7	20135
 656.3	20150
 656.8	20090
 657.3	20146
 657.8	20095
 658.4	20087
 658.9	20086
 659.4	20171
 659.9	20165
 660.5	20140
 661.0	20185
 661.5	20221
 662.1	20181
 662.6	20193
 663.1	20156
 663.6	20228
 664.2	20193
 664.7	20158
 665.2	20093
 665.7	20204
 666.3	20177
 666.8	20182
 667.3	20185
 667.8	20148
 668.4	20180
 668.9	20184
 669.4	20162
 669.9	20197
 670.5	20142
 671.0	20154
 671.5	20108
 672.0	20167
 672.6	20175
 673.1	20197
 673.6	20115
 674.1	20150
 674.7	20135
 675.2	20184
 675.7	20047
 676.2	20064
 676.8	20118
 677.3	20137
 677.8	20065
 678.3	20177
 678.9	20105
 679.4	20061
 679.9	20115
 680.4	20127
 681.0	20099
 681.5	20128
 682.0	20105
 682.5	20127
 683.1	20045
 683.6	20099
 684.1	20035
 684.6	20132
 685.1	20079
 685.7	20103
 686.2	20066
 686.7	20039
 687.2	20030
 687.8	20094
 688.3	20030
 688.8	20067
 689.3	20008
 689.8	20039
 690.4	20033
 690.9	20043
 691.4	20039
 691.9	20069
 692.4	20020
 693.0	20092
 693.5	20066
 694.0	20042
 694.5	20037
 695.1	20020
 695.6	19991
 696.1	20056
 696.6	20039
 697.1	20054
 697.7	20081
 698.2	20013
 698.7	20048
 699.2	20002
 699.7	20004
 700.3	19989
 700.8	19969
 701.3	20082
 701.8	20033
 702.3	19984
 702.8	19991
 703.4	19957
 703.9	19975
 704.4	19976
 704.9	19933
 705.4	19941
 706.0	20042
 706.5	20031
 707.0	19946
 707.5	19935
 708.0	19971
 708.5	19926
 709.1	19987
 709.6	19957
 710.1	19929
 710.6	19901
 711.1	19909
 711.7	19933
 712.2	19938
 712.7	19939
 713.2	19927
 713.7	19934
 714.2	19893
 714.8	19966
 715.3	19921
 715.8	19921
 716.3	19933
 716.8	19847
 717.3	19835
 717.8	19941
 718.4	19954
 718.9	19893
 719.4	19962
 719.9	19891
 720.4	19932
 720.9	19929
 721.4	19928
 722.0	19950
 722.5	19937
 723.0	19925
 723.5	19933
 724.0	19898
 724.5	19892
 725.0	19911
 725.6	19849
 726.1	19891
 726.6	20002
 727.1	19943
 727.6	19979
 728.1	19997
 728.6	19958
 729.1	19943
 729.7	19934
 730.2	19960
 730.7	19995
 731.2	20019
 731.7	20003
 732.2	20009
 732.7	19991
 733.2	20033
 733.8	20012
 734.3	20027
 734.8	20003
 735.3	20017
 735.8	20002
 736.3	19981
 736.8	20008
 737.3	20042
 737.8	19996
 738.4	19998
 738.9	19948
 739.4	20031
 739.9	20014
 740.4	20019
 740.9	20011
 741.4	20002
 741.9	19996
 742.4	20017
 742.9	19998
 743.4	20082
 744.0	20004
 744.5	19999
 745.0	20017
 745.5	20087
 746.0	20059
 746.5	20066
 747.0	20024
 747.5	20007
 748.0	19979
 748.5	19992
 749.0	20009
 749.5	20093
 750.0	19939
 750.5	19992
 751.1	20004
 751.6	20003
 752.1	19996
 752.6	19968
 753.1	19997
 753.6	19941
 754.1	19910
 754.6	19956
 755.1	19927
 755.6	19924
 756.1	19855
 756.6	19945
 757.1	19916
 757.6	19901
 758.1	19874
 758.6	19887
 759.1	19826
 759.6	19857
 760.1	19801
 760.7	19780
 761.2	19853
 761.7	19795
 762.2	19787
 762.7	19837
 763.2	19699
 763.7	19786
 764.2	19724
 764.7	19733
 765.2	19762
 765.7	19736
 766.2	19698
 766.7	19744
 767.2	19700
 767.7	19711
 768.2	19685
 768.7	19663
 769.2	19653
 769.7	19700
 770.2	19671
 770.7	19676
 771.2	19659
 771.7	19635
 772.2	19644
 772.7	19688
 773.2	19673
 773.7	19625
 774.2	19573
 774.7	19627
 775.2	19621
 775.7	19593
 776.2	19590
 776.7	19615
 777.2	19553
 777.7	19619
 778.2	19605
 778.7	19640
 779.2	19652
 779.7	19675
 780.2	19532
 780.7	19596
 781.2	19611
 781.7	19672
 782.2	19597
 782.6	19665
 783.1	19675
 783.6	19636
 784.1	19603
 784.6	19600
 785.1	19610
 785.6	19599
 786.1	19631
 786.6	19649
 787.1	19595
 787.6	19599
 788.1	19593
 788.6	19590
 789.1	19579
 789.6	19619
 790.1	19630
 790.6	19633
 791.1	19545
 791.6	19549
 792.0	19571
 792.5	19607
 793.0	19589
 793.5	19586
 794.0	19525
 794.5	19607
 795.0	19598
 795.5	19568
 796.0	19583
 796.5	19533
 797.0	19559
 797.5	19599
 798.0	19471
 798.4	19512
 798.9	19491
 799.4	19511
 799.9	19514
 800.4	19397
 800.9	19491
 801.4	19556
 801.9	19513
 802.4	19453
 802.9	19513
 803.3	19509
 803.8	19481
 804.3	19430
 804.8	19490
 805.3	19445
 805.8	19432
 806.3	19440
 806.8	19416
 807.2	19415
 807.7	19390
 808.2	19423
 808.7	19347
 809.2	19354
 809.7	19296
 810.2	19359
 810.7	19299
 811.1	19316
 811.6	19319
 812.1	19282
 812.6	19241
 813.1	19290
 813.6	19305
 814.1	19287
 814.5	19245
 815.0	19263
 815.5	19235
 816.0	19191
 816.5	19259
 817.0	19207
 817.4	19187
 817.9	19226
 818.4	19167
 818.9	19243
 819.4	19201
 819.9	19181
 820.3	19147
 820.8	19158
 821.3	19153
 821.8	19159
 822.3	19125
 822.7	19102
 823.2	19161
 823.7	19113
 824.2	19117
 824.7	19097
 825.2	19117
 825.6	19096
 826.1	19095
 826.6	19141
 827.1	19130
 827.6	19119
 828.0	19065
 828.5	19037
 829.0	19074
 829.5	19021
 829.9	19028
 830.4	19079
 830.9	19069
 831.4	19088
 831.9	19054
 832.3	19133
 832.8	19079
 833.3	19069
 833.8	19150
 834.2	19140
 834.7	18998
 835.2	19087
 835.7	19089
 836.1	19083
 836.6	19059
 837.1	19071
 837.6	19088
 838.0	19113
 838.5	19135
 839.0	19134
 839.5	19130
 839.9	19050
 840.4	19055
 840.9	19021
 841.4	19063
 841.8	19079
 842.3	19097
 842.8	19116
 843.3	19116
 843.7	19021
 844.2	19007
 844.7	19095
 845.1	19071
 845.6	18996
 846.1	19017
 846.6	19045
 847.0	18953
 847.5	18996
 848.0	18981
 848.4	19019
 848.9	18996
 849.4	18975
 849.8	18998
 850.3	18993
 850.8	19044
 851.3	19004
 851.7	19000
 852.2	19009
 852.7	18997
 853.1	18981
 853.6	18931
 854.1	18975
 854.5	18941
 855.0	18927
 855.5	18921
 855.9	18987
 856.4	18979
 856.9	18886
 857.3	18945
 857.8	18917
 858.3	18965
 858.7	18919
 859.2	18930
 859.7	18928
 860.1	18982
 860.6	18959
 861.1	18901
 861.5	18943
 862.0	18958
 862.4	18924
 862.9	18891
 863.4	18934
 863.8	18939
 864.3	18938
 864.8	18854
 865.2	18909
 865.7	18930
 866.1	18943
 866.6	18866
 867.1	18942
 867.5	18920
 868.0	18904
 868.5	18859
 868.9	18867
 869.4	18967
 869.8	18924
 870.3	18876
 870.8	18947
 871.2	18903
 871.7	18894
 872.1	18840
 872.6	18884
 873.0	18858
 873.5	18930
 874.0	18909
 874.4	18794
 874.9	18831
 875.3	18785
 875.8	18701
 876.2	18519
 876.7	18394
 877.2	18100
 877.6	17735
 878.1	17391
