#xlabel Wavelength (nm)
#ylabel Spectrometer Array Counts
#title Exposure time is 9300 ms
## lambda	counts
 349.8	16813
 350.3	17064
 350.8	17308
 351.3	17494
 351.9	17595
 352.4	17699
 352.9	17778
 353.4	17747
 354.0	17748
 354.5	17790
 355.0	17794
 355.5	17812
 356.0	17773
 356.6	17742
 357.1	17790
 357.6	17771
 358.1	17803
 358.7	17750
 359.2	17775
 359.7	17790
 360.2	17828
 360.8	17802
 361.3	17897
 361.8	17843
 362.3	17880
 362.9	17839
 363.4	17918
 363.9	17920
 364.4	17948
 364.9	17871
 365.5	17941
 366.0	17923
 366.5	17885
 367.0	17936
 367.6	17957
 368.1	17964
 368.6	17901
 369.1	17965
 369.7	18019
 370.2	17948
 370.7	17945
 371.2	18005
 371.8	18051
 372.3	17983
 372.8	18061
 373.3	18079
 373.9	18035
 374.4	18053
 374.9	18102
 375.5	18015
 376.0	18137
 376.5	18108
 377.0	18139
 377.6	18094
 378.1	18170
 378.6	18119
 379.1	18131
 379.7	18130
 380.2	18201
 380.7	18211
 381.2	18179
 381.8	18177
 382.3	18225
 382.8	18213
 383.4	18261
 383.9	18223
 384.4	18367
 384.9	18284
 385.5	18315
 386.0	18318
 386.5	18391
 387.1	18333
 387.6	18355
 388.1	18362
 388.6	18385
 389.2	18385
 389.7	18419
 390.2	18409
 390.8	18503
 391.3	18490
 391.8	18499
 392.3	18502
 392.9	18511
 393.4	18523
 393.9	18610
 394.5	18624
 395.0	18583
 395.5	18623
 396.0	18635
 396.6	18617
 397.1	18714
 397.6	18719
 398.2	18728
 398.7	18734
 399.2	18831
 399.8	18712
 400.3	18780
 400.8	18827
 401.3	18812
 401.9	18837
 402.4	18862
 402.9	18855
 403.5	18897
 404.0	18897
 404.5	18865
 405.1	18886
 405.6	19001
 406.1	18986
 406.7	19012
 407.2	19037
 407.7	19131
 408.2	19140
 408.8	19164
 409.3	19214
 409.8	19268
 410.4	19255
 410.9	19271
 411.4	19251
 412.0	19320
 412.5	19379
 413.0	19350
 413.6	19403
 414.1	19378
 414.6	19428
 415.2	19481
 415.7	19436
 416.2	19498
 416.8	19496
 417.3	19501
 417.8	19532
 418.4	19635
 418.9	19593
 419.4	19729
 420.0	19639
 420.5	19714
 421.0	19674
 421.5	19767
 422.1	19759
 422.6	19823
 423.1	19854
 423.7	19839
 424.2	19835
 424.7	19885
 425.3	19875
 425.8	19899
 426.3	19902
 426.9	19979
 427.4	19927
 427.9	20048
 428.5	20011
 429.0	20069
 429.6	20051
 430.1	20146
 430.6	20181
 431.2	20158
 431.7	20282
 432.2	20284
 432.8	20296
 433.3	20432
 433.8	20463
 434.4	20468
 434.9	20517
 435.4	20594
 436.0	20601
 436.5	20624
 437.0	20716
 437.6	20715
 438.1	20777
 438.6	20793
 439.2	20832
 439.7	20831
 440.2	20785
 440.8	20819
 441.3	20829
 441.8	20828
 442.4	20803
 442.9	20834
 443.5	20869
 444.0	20872
 444.5	20903
 445.1	20834
 445.6	20882
 446.1	20915
 446.7	20949
 447.2	20990
 447.7	21004
 448.3	21100
 448.8	21102
 449.3	21174
 449.9	21161
 450.4	21311
 450.9	21387
 451.5	21437
 452.0	21464
 452.6	21529
 453.1	21631
 453.6	21685
 454.2	21632
 454.7	21741
 455.2	21801
 455.8	21877
 456.3	21857
 456.8	22001
 457.4	21963
 457.9	21988
 458.5	22046
 459.0	22021
 459.5	22069
 460.1	22032
 460.6	22077
 461.1	22068
 461.7	22119
 462.2	22081
 462.7	22117
 463.3	22058
 463.8	22126
 464.4	22194
 464.9	22154
 465.4	22231
 466.0	22162
 466.5	22252
 467.0	22218
 467.6	22306
 468.1	22413
 468.7	22381
 469.2	22351
 469.7	22470
 470.3	22494
 470.8	22561
 471.3	22579
 471.9	22579
 472.4	22662
 473.0	22731
 473.5	22789
 474.0	22817
 474.6	22855
 475.1	22879
 475.6	22974
 476.2	23019
 476.7	23021
 477.3	23101
 477.8	23081
 478.3	23034
 478.9	23251
 479.4	23180
 479.9	23219
 480.5	23233
 481.0	23297
 481.6	23351
 482.1	23447
 482.6	23461
 483.2	23508
 483.7	23643
 484.2	23626
 484.8	23516
 485.3	23635
 485.9	23734
 486.4	23729
 486.9	23781
 487.5	23777
 488.0	23816
 488.6	23903
 489.1	23944
 489.6	24011
 490.2	24031
 490.7	24025
 491.2	24001
 491.8	24076
 492.3	24041
 492.9	24093
 493.4	24111
 493.9	24132
 494.5	24141
 495.0	24194
 495.6	24119
 496.1	24122
 496.6	24173
 497.2	24097
 497.7	24062
 498.2	24139
 498.8	24148
 499.3	24074
 499.9	24143
 500.4	24145
 500.9	24149
 501.5	24165
 502.0	24270
 502.6	24279
 503.1	24399
 503.6	24407
 504.2	24413
 504.7	24471
 505.2	24589
 505.8	24638
 506.3	24785
 506.9	24865
 507.4	24911
 507.9	24955
 508.5	25063
 509.0	25190
 509.6	25323
 510.1	25361
 510.6	25465
 511.2	25548
 511.7	25603
 512.2	25723
 512.8	25799
 513.3	25823
 513.9	25850
 514.4	25948
 514.9	26046
 515.5	25966
 516.0	26047
 516.6	26015
 517.1	26058
 517.6	26021
 518.2	25989
 518.7	25912
 519.3	25933
 519.8	25929
 520.3	25897
 520.9	25826
 521.4	25801
 521.9	25824
 522.5	25715
 523.0	25705
 523.6	25717
 524.1	25573
 524.6	25605
 525.2	25622
 525.7	25670
 526.3	25617
 526.8	25715
 527.3	25689
 527.9	25743
 528.4	25757
 528.9	25848
 529.5	25902
 530.0	25938
 530.6	26033
 531.1	26094
 531.6	26084
 532.2	26253
 532.7	26293
 533.3	26404
 533.8	26589
 534.3	26699
 534.9	26771
 535.4	26807
 536.0	26947
 536.5	27056
 537.0	27090
 537.6	27185
 538.1	27296
 538.6	27375
 539.2	27377
 539.7	27453
 540.3	27593
 540.8	27598
 541.3	27595
 541.9	27653
 542.4	27675
 543.0	27762
 543.5	27740
 544.0	27729
 544.6	27757
 545.1	27782
 545.6	27803
 546.2	27788
 546.7	27699
 547.3	27752
 547.8	27717
 548.3	27748
 548.9	27655
 549.4	27653
 550.0	27617
 550.5	27667
 551.0	27687
 551.6	27641
 552.1	27647
 552.6	27646
 553.2	27604
 553.7	27588
 554.3	27623
 554.8	27695
 555.3	27575
 555.9	27638
 556.4	27632
 556.9	27749
 557.5	27791
 558.0	27774
 558.6	27789
 559.1	27866
 559.6	27885
 560.2	27924
 560.7	27958
 561.3	27960
 561.8	27973
 562.3	28119
 562.9	28126
 563.4	28193
 563.9	28201
 564.5	28244
 565.0	28245
 565.6	28285
 566.1	28303
 566.6	28317
 567.2	28321
 567.7	28419
 568.2	28373
 568.8	28388
 569.3	28381
 569.9	28445
 570.4	28432
 570.9	28424
 571.5	28431
 572.0	28443
 572.5	28505
 573.1	28469
 573.6	28546
 574.1	28551
 574.7	28574
 575.2	28573
 575.8	28634
 576.3	28743
 576.8	28733
 577.4	28781
 577.9	28825
 578.4	28839
 579.0	28884
 579.5	29021
 580.1	28987
 580.6	29054
 581.1	29162
 581.7	29223
 582.2	29209
 582.7	29279
 583.3	29353
 583.8	29371
 584.3	29359
 584.9	29444
 585.4	29477
 586.0	29483
 586.5	29546
 587.0	29548
 587.6	29642
 588.1	29616
 588.6	29691
 589.2	29655
 589.7	29681
 590.2	29683
 590.8	29668
 591.3	29687
 591.9	29632
 592.4	29671
 592.9	29591
 593.5	29564
 594.0	29535
 594.5	29523
 595.1	29461
 595.6	29401
 596.1	29423
 596.7	29361
 597.2	29364
 597.7	29274
 598.3	29262
 598.8	29211
 599.3	29187
 599.9	29120
 600.4	29090
 601.0	29068
 601.5	29042
 602.0	29018
 602.6	28965
 603.1	28983
 603.6	28987
 604.2	29071
 604.7	29005
 605.2	29079
 605.8	29011
 606.3	29057
 606.8	29138
 607.4	29151
 607.9	29221
 608.4	29202
 609.0	29267
 609.5	29337
 610.0	29343
 610.6	29461
 611.1	29435
 611.6	29511
 612.2	29552
 612.7	29647
 613.2	29691
 613.8	29684
 614.3	29777
 614.8	29859
 615.4	29873
 615.9	30020
 616.4	30135
 617.0	30147
 617.5	30284
 618.0	30375
 618.6	30399
 619.1	30509
 619.6	30645
 620.2	30741
 620.7	30885
 621.2	30936
 621.8	31035
 622.3	31134
 622.8	31173
 623.4	31263
 623.9	31364
 624.4	31379
 625.0	31413
 625.5	31437
 626.0	31467
 626.6	31525
 627.1	31504
 627.6	31458
 628.2	31429
 628.7	31470
 629.2	31443
 629.8	31443
 630.3	31415
 630.8	31377
 631.4	31309
 631.9	31290
 632.4	31142
 632.9	31095
 633.5	31043
 634.0	30963
 634.5	30959
 635.1	30859
 635.6	30804
 636.1	30730
 636.7	30695
 637.2	30649
 637.7	30516
 638.3	30563
 638.8	30505
 639.3	30487
 639.8	30391
 640.4	30381
 640.9	30365
 641.4	30266
 642.0	30218
 642.5	30209
 643.0	30175
 643.6	30241
 644.1	30191
 644.6	30205
 645.1	30212
 645.7	30218
 646.2	30173
 646.7	30201
 647.3	30235
 647.8	30258
 648.3	30241
 648.9	30302
 649.4	30243
 649.9	30329
 650.4	30364
 651.0	30437
 651.5	30483
 652.0	30561
 652.6	30551
 653.1	30660
 653.6	30621
 654.1	30713
 654.7	30715
 655.2	30832
 655.7	30900
 656.3	30948
 656.8	30947
 657.3	31037
 657.8	31027
 658.4	31067
 658.9	31113
 659.4	31203
 659.9	31235
 660.5	31235
 661.0	31295
 661.5	31353
 662.1	31338
 662.6	31359
 663.1	31341
 663.6	31431
 664.2	31394
 664.7	31381
 665.2	31327
 665.7	31421
 666.3	31394
 666.8	31383
 667.3	31382
 667.8	31351
 668.4	31368
 668.9	31369
 669.4	31326
 669.9	31337
 670.5	31263
 671.0	31269
 671.5	31214
 672.0	31242
 672.6	31220
 673.1	31246
 673.6	31143
 674.1	31153
 674.7	31129
 675.2	31151
 675.7	31019
 676.2	30997
 676.8	31049
 677.3	31035
 677.8	30949
 678.3	31031
 678.9	30947
 679.4	30879
 679.9	30923
 680.4	30905
 681.0	30865
 681.5	30875
 682.0	30819
 682.5	30849
 683.1	30747
 683.6	30763
 684.1	30697
 684.6	30781
 685.1	30730
 685.7	30727
 686.2	30702
 686.7	30661
 687.2	30649
 687.8	30703
 688.3	30639
 688.8	30660
 689.3	30605
 689.8	30634
 690.4	30621
 690.9	30638
 691.4	30667
 691.9	30661
 692.4	30637
 693.0	30703
 693.5	30673
 694.0	30666
 694.5	30659
 695.1	30651
 695.6	30612
 696.1	30683
 696.6	30671
 697.1	30689
 697.7	30707
 698.2	30641
 698.7	30667
 699.2	30636
 699.7	30637
 700.3	30592
 700.8	30571
 701.3	30645
 701.8	30602
 702.3	30544
 702.8	30534
 703.4	30518
 703.9	30483
 704.4	30448
 704.9	30405
 705.4	30395
 706.0	30439
 706.5	30405
 707.0	30307
 707.5	30274
 708.0	30278
 708.5	30214
 709.1	30247
 709.6	30206
 710.1	30134
 710.6	30094
 711.1	30071
 711.7	30070
 712.2	30035
 712.7	30033
 713.2	29988
 713.7	29985
 714.2	29929
 714.8	29995
 715.3	29929
 715.8	29918
 716.3	29914
 716.8	29843
 717.3	29833
 717.8	29918
 718.4	29927
 718.9	29875
 719.4	29948
 719.9	29865
 720.4	29911
 720.9	29928
 721.4	29921
 722.0	29953
 722.5	29952
 723.0	29949
 723.5	29969
 724.0	29947
 724.5	29936
 725.0	29979
 725.6	29926
 726.1	29987
 726.6	30090
 727.1	30037
 727.6	30077
 728.1	30106
 728.6	30070
 729.1	30070
 729.7	30055
 730.2	30081
 730.7	30109
 731.2	30143
 731.7	30130
 732.2	30147
 732.7	30117
 733.2	30154
 733.8	30135
 734.3	30166
 734.8	30161
 735.3	30192
 735.8	30201
 736.3	30203
 736.8	30244
 737.3	30305
 737.8	30266
 738.4	30271
 738.9	30246
 739.4	30327
 739.9	30315
 740.4	30350
 740.9	30322
 741.4	30325
 741.9	30316
 742.4	30334
 742.9	30312
 743.4	30369
 744.0	30279
 744.5	30261
 745.0	30253
 745.5	30305
 746.0	30267
 746.5	30274
 747.0	30204
 747.5	30173
 748.0	30134
 748.5	30131
 749.0	30127
 749.5	30182
 750.0	30011
 750.5	30027
 751.1	30005
 751.6	29984
 752.1	29937
 752.6	29879
 753.1	29896
 753.6	29804
 754.1	29754
 754.6	29756
 755.1	29685
 755.6	29655
 756.1	29550
 756.6	29597
 757.1	29545
 757.6	29490
 758.1	29415
 758.6	29377
 759.1	29283
 759.6	29277
 760.1	29187
 760.7	29111
 761.2	29153
 761.7	29080
 762.2	29023
 762.7	29031
 763.2	28886
 763.7	28911
 764.2	28816
 764.7	28771
 765.2	28755
 765.7	28670
 766.2	28598
 766.7	28592
 767.2	28497
 767.7	28456
 768.2	28396
 768.7	28329
 769.2	28274
 769.7	28278
 770.2	28215
 770.7	28195
 771.2	28136
 771.7	28091
 772.2	28071
 772.7	28082
 773.2	28037
 773.7	27967
 774.2	27890
 774.7	27911
 775.2	27867
 775.7	27831
 776.2	27797
 776.7	27811
 777.2	27725
 777.7	27769
 778.2	27733
 778.7	27755
 779.2	27740
 779.7	27755
 780.2	27597
 780.7	27642
 781.2	27633
 781.7	27669
 782.2	27594
 782.6	27650
 783.1	27629
 783.6	27591
 784.1	27537
 784.6	27526
 785.1	27531
 785.6	27518
 786.1	27530
 786.6	27530
 787.1	27474
 787.6	27452
 788.1	27423
 788.6	27409
 789.1	27381
 789.6	27388
 790.1	27381
 790.6	27363
 791.1	27255
 791.6	27238
 792.0	27222
 792.5	27230
 793.0	27185
 793.5	27148
 794.0	27061
 794.5	27115
 795.0	27053
 795.5	27012
 796.0	26982
 796.5	26899
 797.0	26883
 797.5	26882
 798.0	26709
 798.4	26699
 798.9	26645
 799.4	26609
 799.9	26567
 800.4	26415
 800.9	26459
 801.4	26450
 801.9	26359
 802.4	26239
 802.9	26251
 803.3	26189
 803.8	26107
 804.3	26023
 804.8	26022
 805.3	25935
 805.8	25853
 806.3	25805
 806.8	25743
 807.2	25674
 807.7	25606
 808.2	25580
 808.7	25459
 809.2	25416
 809.7	25311
 810.2	25324
 810.7	25219
 811.1	25180
 811.6	25131
 812.1	25049
 812.6	24966
 813.1	24970
 813.6	24943
 814.1	24887
 814.5	24807
 815.0	24783
 815.5	24708
 816.0	24636
 816.5	24653
 817.0	24569
 817.4	24518
 817.9	24519
 818.4	24418
 818.9	24459
 819.4	24387
 819.9	24331
 820.3	24283
 820.8	24251
 821.3	24223
 821.8	24185
 822.3	24118
 822.7	24075
 823.2	24111
 823.7	24042
 824.2	24019
 824.7	23970
 825.2	23959
 825.6	23919
 826.1	23886
 826.6	23915
 827.1	23875
 827.6	23853
 828.0	23777
 828.5	23735
 829.0	23750
 829.5	23681
 829.9	23664
 830.4	23695
 830.9	23662
 831.4	23667
 831.9	23614
 832.3	23665
 832.8	23597
 833.3	23585
 833.8	23645
 834.2	23617
 834.7	23462
 835.2	23531
 835.7	23519
 836.1	23502
 836.6	23466
 837.1	23462
 837.6	23460
 838.0	23474
 838.5	23479
 839.0	23474
 839.5	23455
 839.9	23369
 840.4	23365
 840.9	23317
 841.4	23345
 841.8	23349
 842.3	23347
 842.8	23355
 843.3	23333
 843.7	23224
 844.2	23207
 844.7	23268
 845.1	23235
 845.6	23156
 846.1	23159
 846.6	23182
 847.0	23074
 847.5	23105
 848.0	23063
 848.4	23090
 848.9	23038
 849.4	23000
 849.8	22997
 850.3	22989
 850.8	23013
 851.3	22957
 851.7	22937
 852.2	22921
 852.7	22898
 853.1	22862
 853.6	22789
 854.1	22816
 854.5	22761
 855.0	22729
 855.5	22703
 855.9	22745
 856.4	22706
 856.9	22611
 857.3	22638
 857.8	22585
 858.3	22589
 858.7	22519
 859.2	22529
 859.7	22522
 860.1	22569
 860.6	22525
 861.1	22446
 861.5	22465
 862.0	22451
 862.4	22403
 862.9	22351
 863.4	22377
 863.8	22367
 864.3	22345
 864.8	22244
 865.2	22269
 865.7	22274
 866.1	22267
 866.6	22172
 867.1	22225
 867.5	22194
 868.0	22153
 868.5	22082
 868.9	22067
 869.4	22138
 869.8	22079
 870.3	22016
 870.8	22063
 871.2	22003
 871.7	21972
 872.1	21905
 872.6	21935
 873.0	21890
 873.5	21954
 874.0	21927
 874.4	21803
 874.9	21821
 875.3	21760
 875.8	21659
 876.2	21445
 876.7	21272
 877.2	20908
 877.6	20465
 878.1	19993
