#xlabel Wavelength (nm)
#ylabel Spectrometer Array Counts
#title Exposure time is 9300 ms
## lambda	counts
 349.8	16652
 350.3	16892
 350.8	17128
 351.3	17311
 351.9	17408
 352.4	17523
 352.9	17603
 353.4	17575
 354.0	17585
 354.5	17626
 355.0	17634
 355.5	17651
 356.0	17609
 356.6	17575
 357.1	17615
 357.6	17599
 358.1	17622
 358.7	17562
 359.2	17575
 359.7	17589
 360.2	17616
 360.8	17583
 361.3	17673
 361.8	17615
 362.3	17644
 362.9	17601
 363.4	17670
 363.9	17666
 364.4	17692
 364.9	17605
 365.5	17677
 366.0	17653
 366.5	17606
 367.0	17651
 367.6	17675
 368.1	17667
 368.6	17609
 369.1	17656
 369.7	17704
 370.2	17631
 370.7	17626
 371.2	17670
 371.8	17715
 372.3	17637
 372.8	17708
 373.3	17723
 373.9	17665
 374.4	17675
 374.9	17719
 375.5	17621
 376.0	17729
 376.5	17694
 377.0	17716
 377.6	17658
 378.1	17729
 378.6	17666
 379.1	17664
 379.7	17650
 380.2	17713
 380.7	17708
 381.2	17662
 381.8	17652
 382.3	17689
 382.8	17669
 383.4	17710
 383.9	17666
 384.4	17801
 384.9	17717
 385.5	17735
 386.0	17727
 386.5	17800
 387.1	17730
 387.6	17742
 388.1	17742
 388.6	17755
 389.2	17740
 389.7	17763
 390.2	17729
 390.8	17815
 391.3	17778
 391.8	17771
 392.3	17754
 392.9	17743
 393.4	17737
 393.9	17797
 394.5	17799
 395.0	17741
 395.5	17762
 396.0	17759
 396.6	17729
 397.1	17807
 397.6	17806
 398.2	17798
 398.7	17798
 399.2	17887
 399.8	17764
 400.3	17823
 400.8	17862
 401.3	17838
 401.9	17851
 402.4	17863
 402.9	17846
 403.5	17869
 404.0	17860
 404.5	17806
 405.1	17805
 405.6	17887
 406.1	17858
 406.7	17867
 407.2	17863
 407.7	17940
 408.2	17924
 408.8	17930
 409.3	17954
 409.8	17985
 410.4	17950
 410.9	17942
 411.4	17899
 412.0	17955
 412.5	17994
 413.0	17947
 413.6	17981
 414.1	17941
 414.6	17971
 415.2	18008
 415.7	17941
 416.2	17986
 416.8	17967
 417.3	17949
 417.8	17965
 418.4	18047
 418.9	17983
 419.4	18105
 420.0	17992
 420.5	18049
 421.0	17996
 421.5	18069
 422.1	18049
 422.6	18094
 423.1	18107
 423.7	18085
 424.2	18066
 424.7	18095
 425.3	18069
 425.8	18085
 426.3	18079
 426.9	18129
 427.4	18068
 427.9	18171
 428.5	18113
 429.0	18143
 429.6	18099
 430.1	18175
 430.6	18161
 431.2	18100
 431.7	18184
 432.2	18150
 432.8	18127
 433.3	18223
 433.8	18221
 434.4	18185
 434.9	18194
 435.4	18232
 436.0	18213
 436.5	18202
 437.0	18270
 437.6	18238
 438.1	18286
 438.6	18287
 439.2	18309
 439.7	18303
 440.2	18246
 440.8	18267
 441.3	18271
 441.8	18277
 442.4	18236
 442.9	18270
 443.5	18299
 444.0	18291
 444.5	18315
 445.1	18235
 445.6	18267
 446.1	18281
 446.7	18293
 447.2	18311
 447.7	18296
 448.3	18354
 448.8	18313
 449.3	18343
 449.9	18287
 450.4	18380
 450.9	18407
 451.5	18407
 452.0	18370
 452.6	18390
 453.1	18429
 453.6	18439
 454.2	18332
 454.7	18395
 455.2	18407
 455.8	18449
 456.3	18392
 456.8	18507
 457.4	18434
 457.9	18446
 458.5	18492
 459.0	18444
 459.5	18484
 460.1	18435
 460.6	18478
 461.1	18466
 461.7	18511
 462.2	18465
 462.7	18502
 463.3	18433
 463.8	18501
 464.4	18562
 464.9	18502
 465.4	18567
 466.0	18463
 466.5	18527
 467.0	18470
 467.6	18533
 468.1	18613
 468.7	18538
 469.2	18476
 469.7	18558
 470.3	18545
 470.8	18571
 471.3	18551
 471.9	18501
 472.4	18548
 473.0	18591
 473.5	18604
 474.0	18589
 474.6	18594
 475.1	18580
 475.6	18649
 476.2	18654
 476.7	18636
 477.3	18691
 477.8	18625
 478.3	18567
 478.9	18748
 479.4	18638
 479.9	18649
 480.5	18634
 481.0	18653
 481.6	18676
 482.1	18731
 482.6	18709
 483.2	18712
 483.7	18820
 484.2	18755
 484.8	18602
 485.3	18693
 485.9	18762
 486.4	18725
 486.9	18741
 487.5	18701
 488.0	18710
 488.6	18767
 489.1	18771
 489.6	18819
 490.2	18811
 490.7	18769
 491.2	18740
 491.8	18791
 492.3	18743
 492.9	18786
 493.4	18805
 493.9	18812
 494.5	18817
 495.0	18882
 495.6	18804
 496.1	18814
 496.6	18871
 497.2	18791
 497.7	18754
 498.2	18841
 498.8	18861
 499.3	18773
 499.9	18832
 500.4	18823
 500.9	18811
 501.5	18797
 502.0	18865
 502.6	18841
 503.1	18919
 503.6	18887
 504.2	18841
 504.7	18839
 505.2	18903
 505.8	18902
 506.3	18965
 506.9	18970
 507.4	18935
 507.9	18913
 508.5	18943
 509.0	18986
 509.6	19037
 510.1	19015
 510.6	19045
 511.2	19067
 511.7	19048
 512.2	19115
 512.8	19125
 513.3	19093
 513.9	19081
 514.4	19138
 514.9	19205
 515.5	19111
 516.0	19180
 516.6	19156
 517.1	19199
 517.6	19179
 518.2	19165
 518.7	19101
 519.3	19153
 519.8	19195
 520.3	19191
 520.9	19138
 521.4	19141
 521.9	19202
 522.5	19126
 523.0	19147
 523.6	19181
 524.1	19043
 524.6	19095
 525.2	19118
 525.7	19151
 526.3	19071
 526.8	19155
 527.3	19109
 527.9	19132
 528.4	19115
 528.9	19167
 529.5	19186
 530.0	19167
 530.6	19204
 531.1	19215
 531.6	19135
 532.2	19244
 532.7	19206
 533.3	19241
 533.8	19363
 534.3	19390
 534.9	19389
 535.4	19330
 536.0	19401
 536.5	19441
 537.0	19401
 537.6	19431
 538.1	19475
 538.6	19497
 539.2	19437
 539.7	19453
 540.3	19555
 540.8	19511
 541.3	19471
 541.9	19501
 542.4	19505
 543.0	19569
 543.5	19522
 544.0	19508
 544.6	19553
 545.1	19561
 545.6	19594
 546.2	19575
 546.7	19495
 547.3	19547
 547.8	19525
 548.3	19570
 548.9	19491
 549.4	19496
 550.0	19464
 550.5	19528
 551.0	19563
 551.6	19518
 552.1	19537
 552.6	19533
 553.2	19515
 553.7	19491
 554.3	19526
 554.8	19592
 555.3	19454
 555.9	19518
 556.4	19478
 556.9	19573
 557.5	19599
 558.0	19555
 558.6	19531
 559.1	19601
 559.6	19583
 560.2	19585
 560.7	19578
 561.3	19553
 561.8	19534
 562.3	19642
 562.9	19631
 563.4	19657
 563.9	19647
 564.5	19654
 565.0	19643
 565.6	19657
 566.1	19653
 566.6	19663
 567.2	19649
 567.7	19750
 568.2	19659
 568.8	19675
 569.3	19644
 569.9	19716
 570.4	19698
 570.9	19673
 571.5	19665
 572.0	19657
 572.5	19715
 573.1	19665
 573.6	19706
 574.1	19699
 574.7	19699
 575.2	19670
 575.8	19701
 576.3	19771
 576.8	19740
 577.4	19750
 577.9	19763
 578.4	19723
 579.0	19734
 579.5	19821
 580.1	19753
 580.6	19757
 581.1	19832
 581.7	19853
 582.2	19787
 582.7	19827
 583.3	19876
 583.8	19840
 584.3	19793
 584.9	19849
 585.4	19854
 586.0	19829
 586.5	19862
 587.0	19821
 587.6	19889
 588.1	19846
 588.6	19912
 589.2	19856
 589.7	19867
 590.2	19857
 590.8	19855
 591.3	19876
 591.9	19830
 592.4	19887
 592.9	19825
 593.5	19819
 594.0	19811
 594.5	19823
 595.1	19810
 595.6	19783
 596.1	19843
 596.7	19801
 597.2	19839
 597.7	19786
 598.3	19790
 598.8	19763
 599.3	19775
 599.9	19757
 600.4	19749
 601.0	19759
 601.5	19741
 602.0	19731
 602.6	19683
 603.1	19700
 603.6	19699
 604.2	19798
 604.7	19705
 605.2	19770
 605.8	19689
 606.3	19710
 606.8	19779
 607.4	19755
 607.9	19787
 608.4	19737
 609.0	19767
 609.5	19809
 610.0	19779
 610.6	19867
 611.1	19796
 611.6	19810
 612.2	19813
 612.7	19868
 613.2	19857
 613.8	19790
 614.3	19821
 614.8	19877
 615.4	19801
 615.9	19883
 616.4	19935
 617.0	19886
 617.5	19975
 618.0	19985
 618.6	19909
 619.1	19947
 619.6	20018
 620.2	20016
 620.7	20069
 621.2	20028
 621.8	20065
 622.3	20091
 622.8	20046
 623.4	20077
 623.9	20134
 624.4	20112
 625.0	20103
 625.5	20115
 626.0	20123
 626.6	20168
 627.1	20158
 627.6	20113
 628.2	20079
 628.7	20112
 629.2	20092
 629.8	20119
 630.3	20134
 630.8	20119
 631.4	20099
 631.9	20119
 632.4	20019
 632.9	20039
 633.5	20034
 634.0	19999
 634.5	20081
 635.1	20012
 635.6	19993
 636.1	19976
 636.7	20027
 637.2	20015
 637.7	19931
 638.3	20021
 638.8	20022
 639.3	20024
 639.8	19987
 640.4	19998
 640.9	20017
 641.4	19932
 642.0	19919
 642.5	19942
 643.0	19909
 643.6	19994
 644.1	19953
 644.6	19963
 645.1	19999
 645.7	19975
 646.2	19945
 646.7	19957
 647.3	19990
 647.8	19981
 648.3	19965
 648.9	20003
 649.4	19920
 649.9	19995
 650.4	19992
 651.0	20030
 651.5	20043
 652.0	20093
 652.6	20035
 653.1	20109
 653.6	20029
 654.1	20099
 654.7	20049
 655.2	20129
 655.7	20167
 656.3	20174
 656.8	20119
 657.3	20175
 657.8	20126
 658.4	20111
 658.9	20115
 659.4	20197
 659.9	20187
 660.5	20167
 661.0	20208
 661.5	20248
 662.1	20210
 662.6	20216
 663.1	20179
 663.6	20254
 664.2	20219
 664.7	20187
 665.2	20117
 665.7	20231
 666.3	20202
 666.8	20215
 667.3	20211
 667.8	20173
 668.4	20208
 668.9	20212
 669.4	20190
 669.9	20229
 670.5	20166
 671.0	20179
 671.5	20131
 672.0	20196
 672.6	20199
 673.1	20225
 673.6	20139
 674.1	20172
 674.7	20162
 675.2	20212
 675.7	20075
 676.2	20091
 676.8	20142
 677.3	20159
 677.8	20092
 678.3	20200
 678.9	20129
 679.4	20089
 679.9	20144
 680.4	20157
 681.0	20117
 681.5	20154
 682.0	20125
 682.5	20149
 683.1	20068
 683.6	20121
 684.1	20062
 684.6	20159
 685.1	20105
 685.7	20127
 686.2	20088
 686.7	20067
 687.2	20051
 687.8	20117
 688.3	20063
 688.8	20096
 689.3	20039
 689.8	20063
 690.4	20061
 690.9	20072
 691.4	20070
 691.9	20097
 692.4	20046
 693.0	20118
 693.5	20087
 694.0	20069
 694.5	20067
 695.1	20047
 695.6	20013
 696.1	20077
 696.6	20063
 697.1	20078
 697.7	20105
 698.2	20040
 698.7	20063
 699.2	20024
 699.7	20033
 700.3	20014
 700.8	19996
 701.3	20108
 701.8	20061
 702.3	20012
 702.8	20018
 703.4	19988
 703.9	19999
 704.4	20003
 704.9	19962
 705.4	19970
 706.0	20067
 706.5	20057
 707.0	19975
 707.5	19961
 708.0	19993
 708.5	19947
 709.1	20013
 709.6	19984
 710.1	19951
 710.6	19929
 711.1	19937
 711.7	19961
 712.2	19963
 712.7	19968
 713.2	19950
 713.7	19956
 714.2	19918
 714.8	19993
 715.3	19941
 715.8	19952
 716.3	19961
 716.8	19877
 717.3	19862
 717.8	19969
 718.4	19984
 718.9	19920
 719.4	19991
 719.9	19915
 720.4	19959
 720.9	19957
 721.4	19951
 722.0	19973
 722.5	19961
 723.0	19949
 723.5	19958
 724.0	19926
 724.5	19916
 725.0	19939
 725.6	19871
 726.1	19919
 726.6	20031
 727.1	19963
 727.6	20006
 728.1	20019
 728.6	19981
 729.1	19967
 729.7	19961
 730.2	19984
 730.7	20020
 731.2	20041
 731.7	20036
 732.2	20033
 732.7	20014
 733.2	20059
 733.8	20032
 734.3	20053
 734.8	20028
 735.3	20044
 735.8	20027
 736.3	20007
 736.8	20036
 737.3	20069
 737.8	20019
 738.4	20019
 738.9	19974
 739.4	20054
 739.9	20041
 740.4	20045
 740.9	20040
 741.4	20031
 741.9	20027
 742.4	20044
 742.9	20027
 743.4	20106
 744.0	20035
 744.5	20028
 745.0	20043
 745.5	20113
 746.0	20085
 746.5	20096
 747.0	20044
 747.5	20033
 748.0	20005
 748.5	20019
 749.0	20036
 749.5	20120
 750.0	19959
 750.5	20023
 751.1	20034
 751.6	20032
 752.1	20019
 752.6	19988
 753.1	20018
 753.6	19961
 754.1	19939
 754.6	19982
 755.1	19942
 755.6	19952
 756.1	19880
 756.6	19975
 757.1	19941
 757.6	19920
 758.1	19897
 758.6	19919
 759.1	19851
 759.6	19882
 760.1	19832
 760.7	19807
 761.2	19882
 761.7	19825
 762.2	19813
 762.7	19867
 763.2	19723
 763.7	19814
 764.2	19752
 764.7	19758
 765.2	19789
 765.7	19763
 766.2	19719
 766.7	19767
 767.2	19723
 767.7	19733
 768.2	19711
 768.7	19691
 769.2	19683
 769.7	19720
 770.2	19695
 770.7	19702
 771.2	19682
 771.7	19658
 772.2	19673
 772.7	19717
 773.2	19701
 773.7	19653
 774.2	19597
 774.7	19650
 775.2	19646
 775.7	19623
 776.2	19614
 776.7	19638
 777.2	19570
 777.7	19644
 778.2	19635
 778.7	19666
 779.2	19677
 779.7	19701
 780.2	19555
 780.7	19625
 781.2	19637
 781.7	19696
 782.2	19623
 782.6	19691
 783.1	19696
 783.6	19666
 784.1	19635
 784.6	19624
 785.1	19639
 785.6	19625
 786.1	19658
 786.6	19675
 787.1	19619
 787.6	19625
 788.1	19617
 788.6	19613
 789.1	19607
 789.6	19648
 790.1	19655
 790.6	19658
 791.1	19568
 791.6	19574
 792.0	19599
 792.5	19636
 793.0	19615
 793.5	19608
 794.0	19549
 794.5	19634
 795.0	19625
 795.5	19595
 796.0	19610
 796.5	19559
 797.0	19591
 797.5	19629
 798.0	19496
 798.4	19538
 798.9	19524
 799.4	19543
 799.9	19543
 800.4	19425
 800.9	19515
 801.4	19578
 801.9	19536
 802.4	19484
 802.9	19543
 803.3	19539
 803.8	19508
 804.3	19452
 804.8	19519
 805.3	19473
 805.8	19461
 806.3	19463
 806.8	19445
 807.2	19439
 807.7	19418
 808.2	19449
 808.7	19374
 809.2	19381
 809.7	19323
 810.2	19383
 810.7	19329
 811.1	19345
 811.6	19342
 812.1	19308
 812.6	19266
 813.1	19313
 813.6	19329
 814.1	19310
 814.5	19268
 815.0	19285
 815.5	19261
 816.0	19219
 816.5	19283
 817.0	19228
 817.4	19212
 817.9	19251
 818.4	19195
 818.9	19264
 819.4	19221
 819.9	19210
 820.3	19175
 820.8	19179
 821.3	19175
 821.8	19185
 822.3	19146
 822.7	19128
 823.2	19185
 823.7	19137
 824.2	19143
 824.7	19125
 825.2	19145
 825.6	19119
 826.1	19116
 826.6	19159
 827.1	19153
 827.6	19145
 828.0	19086
 828.5	19066
 829.0	19098
 829.5	19047
 829.9	19058
 830.4	19106
 830.9	19091
 831.4	19113
 831.9	19079
 832.3	19156
 832.8	19106
 833.3	19098
 833.8	19177
 834.2	19166
 834.7	19021
 835.2	19112
 835.7	19113
 836.1	19109
 836.6	19084
 837.1	19099
 837.6	19105
 838.0	19135
 838.5	19158
 839.0	19159
 839.5	19150
 839.9	19077
 840.4	19081
 840.9	19051
 841.4	19090
 841.8	19103
 842.3	19122
 842.8	19143
 843.3	19131
 843.7	19044
 844.2	19033
 844.7	19120
 845.1	19093
 845.6	19017
 846.1	19037
 846.6	19073
 847.0	18975
 847.5	19022
 848.0	19004
 848.4	19049
 848.9	19013
 849.4	19000
 849.8	19025
 850.3	19017
 850.8	19062
 851.3	19027
 851.7	19029
 852.2	19031
 852.7	19025
 853.1	19001
 853.6	18957
 854.1	18998
 854.5	18967
 855.0	18951
 855.5	18949
 855.9	19013
 856.4	19004
 856.9	18913
 857.3	18970
 857.8	18947
 858.3	18989
 858.7	18940
 859.2	18956
 859.7	18955
 860.1	19006
 860.6	18989
 861.1	18934
 861.5	18970
 862.0	18985
 862.4	18953
 862.9	18921
 863.4	18961
 863.8	18969
 864.3	18961
 864.8	18881
 865.2	18934
 865.7	18959
 866.1	18966
 866.6	18891
 867.1	18968
 867.5	18947
 868.0	18935
 868.5	18875
 868.9	18899
 869.4	18993
 869.8	18943
 870.3	18902
 870.8	18975
 871.2	18927
 871.7	18925
 872.1	18874
 872.6	18923
 873.0	18904
 873.5	18982
 874.0	18973
 874.4	18867
 874.9	18899
 875.3	18853
 875.8	18765
 876.2	18584
 876.7	18443
 877.2	18143
 877.6	17768
 878.1	17409
