#xlabel Wavelength (nm)
#ylabel Spectrometer Array Counts
#title Exposure time is 9300 ms
## lambda	counts
 349.8	16825
 350.3	17078
 350.8	17325
 351.3	17508
 351.9	17613
 352.4	17727
 352.9	17809
 353.4	17775
 354.0	17778
 354.5	17819
 355.0	17827
 355.5	17846
 356.0	17805
 356.6	17774
 357.1	17816
 357.6	17802
 358.1	17835
 358.7	17775
 359.2	17794
 359.7	17812
 360.2	17848
 360.8	17823
 361.3	17916
 361.8	17865
 362.3	17897
 362.9	17860
 363.4	17936
 363.9	17935
 364.4	17969
 364.9	17885
 365.5	17963
 366.0	17945
 366.5	17904
 367.0	17954
 367.6	17980
 368.1	17982
 368.6	17923
 369.1	17981
 369.7	18031
 370.2	17967
 370.7	17969
 371.2	18023
 371.8	18072
 372.3	18003
 372.8	18078
 373.3	18102
 373.9	18055
 374.4	18075
 374.9	18129
 375.5	18035
 376.0	18160
 376.5	18130
 377.0	18162
 377.6	18111
 378.1	18191
 378.6	18138
 379.1	18155
 379.7	18147
 380.2	18223
 380.7	18234
 381.2	18197
 381.8	18197
 382.3	18247
 382.8	18233
 383.4	18279
 383.9	18243
 384.4	18390
 384.9	18308
 385.5	18332
 386.0	18335
 386.5	18412
 387.1	18354
 387.6	18377
 388.1	18388
 388.6	18403
 389.2	18404
 389.7	18435
 390.2	18427
 390.8	18527
 391.3	18509
 391.8	18520
 392.3	18524
 392.9	18533
 393.4	18541
 393.9	18627
 394.5	18643
 395.0	18605
 395.5	18646
 396.0	18654
 396.6	18635
 397.1	18731
 397.6	18739
 398.2	18747
 398.7	18755
 399.2	18848
 399.8	18733
 400.3	18801
 400.8	18850
 401.3	18837
 401.9	18855
 402.4	18879
 402.9	18878
 403.5	18912
 404.0	18917
 404.5	18886
 405.1	18908
 405.6	19018
 406.1	19006
 406.7	19035
 407.2	19054
 407.7	19155
 408.2	19161
 408.8	19184
 409.3	19231
 409.8	19293
 410.4	19274
 410.9	19294
 411.4	19263
 412.0	19343
 412.5	19402
 413.0	19369
 413.6	19423
 414.1	19402
 414.6	19447
 415.2	19502
 415.7	19458
 416.2	19521
 416.8	19518
 417.3	19521
 417.8	19553
 418.4	19656
 418.9	19613
 419.4	19749
 420.0	19658
 420.5	19735
 421.0	19695
 421.5	19782
 422.1	19781
 422.6	19839
 423.1	19871
 423.7	19867
 424.2	19859
 424.7	19901
 425.3	19888
 425.8	19919
 426.3	19923
 426.9	19998
 427.4	19949
 427.9	20065
 428.5	20034
 429.0	20087
 429.6	20078
 430.1	20177
 430.6	20202
 431.2	20179
 431.7	20301
 432.2	20300
 432.8	20315
 433.3	20446
 433.8	20487
 434.4	20492
 434.9	20540
 435.4	20612
 436.0	20623
 436.5	20645
 437.0	20739
 437.6	20732
 438.1	20798
 438.6	20817
 439.2	20854
 439.7	20854
 440.2	20809
 440.8	20835
 441.3	20848
 441.8	20855
 442.4	20825
 442.9	20858
 443.5	20897
 444.0	20889
 444.5	20919
 445.1	20851
 445.6	20903
 446.1	20937
 446.7	20972
 447.2	21011
 447.7	21027
 448.3	21126
 448.8	21123
 449.3	21195
 449.9	21184
 450.4	21333
 450.9	21415
 451.5	21459
 452.0	21483
 452.6	21551
 453.1	21651
 453.6	21706
 454.2	21653
 454.7	21763
 455.2	21824
 455.8	21904
 456.3	21880
 456.8	22024
 457.4	21982
 457.9	22011
 458.5	22065
 459.0	22043
 459.5	22090
 460.1	22059
 460.6	22102
 461.1	22092
 461.7	22144
 462.2	22107
 462.7	22139
 463.3	22079
 463.8	22147
 464.4	22221
 464.9	22181
 465.4	22261
 466.0	22183
 466.5	22278
 467.0	22239
 467.6	22331
 468.1	22439
 468.7	22402
 469.2	22374
 469.7	22499
 470.3	22518
 470.8	22587
 471.3	22606
 471.9	22602
 472.4	22685
 473.0	22758
 473.5	22811
 474.0	22839
 474.6	22875
 475.1	22911
 475.6	23009
 476.2	23044
 476.7	23050
 477.3	23127
 477.8	23099
 478.3	23060
 478.9	23275
 479.4	23203
 479.9	23247
 480.5	23266
 481.0	23324
 481.6	23371
 482.1	23473
 482.6	23483
 483.2	23538
 483.7	23665
 484.2	23654
 484.8	23542
 485.3	23663
 485.9	23760
 486.4	23753
 486.9	23822
 487.5	23805
 488.0	23848
 488.6	23926
 489.1	23970
 489.6	24043
 490.2	24058
 490.7	24044
 491.2	24024
 491.8	24099
 492.3	24070
 492.9	24128
 493.4	24143
 493.9	24164
 494.5	24166
 495.0	24217
 495.6	24145
 496.1	24153
 496.6	24201
 497.2	24123
 497.7	24095
 498.2	24169
 498.8	24177
 499.3	24108
 499.9	24166
 500.4	24177
 500.9	24179
 501.5	24197
 502.0	24299
 502.6	24303
 503.1	24431
 503.6	24442
 504.2	24446
 504.7	24503
 505.2	24616
 505.8	24669
 506.3	24818
 506.9	24898
 507.4	24944
 507.9	24989
 508.5	25097
 509.0	25215
 509.6	25356
 510.1	25392
 510.6	25491
 511.2	25583
 511.7	25643
 512.2	25756
 512.8	25833
 513.3	25852
 513.9	25886
 514.4	25977
 514.9	26074
 515.5	25996
 516.0	26078
 516.6	26048
 517.1	26091
 517.6	26050
 518.2	26021
 518.7	25944
 519.3	25967
 519.8	25965
 520.3	25931
 520.9	25857
 521.4	25833
 521.9	25859
 522.5	25749
 523.0	25735
 523.6	25752
 524.1	25605
 524.6	25637
 525.2	25655
 525.7	25699
 526.3	25649
 526.8	25753
 527.3	25729
 527.9	25778
 528.4	25788
 528.9	25884
 529.5	25935
 530.0	25973
 530.6	26073
 531.1	26133
 531.6	26122
 532.2	26286
 532.7	26326
 533.3	26437
 533.8	26621
 534.3	26733
 534.9	26805
 535.4	26845
 536.0	26982
 536.5	27088
 537.0	27131
 537.6	27221
 538.1	27331
 538.6	27413
 539.2	27420
 539.7	27492
 540.3	27626
 540.8	27631
 541.3	27627
 541.9	27699
 542.4	27723
 543.0	27805
 543.5	27780
 544.0	27766
 544.6	27803
 545.1	27820
 545.6	27844
 546.2	27829
 546.7	27739
 547.3	27795
 547.8	27761
 548.3	27791
 548.9	27699
 549.4	27691
 550.0	27654
 550.5	27713
 551.0	27729
 551.6	27682
 552.1	27691
 552.6	27693
 553.2	27650
 553.7	27634
 554.3	27666
 554.8	27743
 555.3	27614
 555.9	27683
 556.4	27675
 556.9	27791
 557.5	27835
 558.0	27821
 558.6	27827
 559.1	27911
 559.6	27924
 560.2	27971
 560.7	28003
 561.3	28002
 561.8	28013
 562.3	28160
 562.9	28169
 563.4	28239
 563.9	28246
 564.5	28285
 565.0	28293
 565.6	28335
 566.1	28347
 566.6	28361
 567.2	28364
 567.7	28469
 568.2	28423
 568.8	28427
 569.3	28417
 569.9	28489
 570.4	28477
 570.9	28467
 571.5	28470
 572.0	28482
 572.5	28543
 573.1	28518
 573.6	28588
 574.1	28601
 574.7	28622
 575.2	28622
 575.8	28687
 576.3	28791
 576.8	28783
 577.4	28828
 577.9	28875
 578.4	28878
 579.0	28933
 579.5	29065
 580.1	29034
 580.6	29097
 581.1	29206
 581.7	29272
 582.2	29254
 582.7	29330
 583.3	29403
 583.8	29411
 584.3	29405
 584.9	29487
 585.4	29519
 586.0	29529
 586.5	29593
 587.0	29599
 587.6	29686
 588.1	29661
 588.6	29741
 589.2	29709
 589.7	29730
 590.2	29732
 590.8	29713
 591.3	29737
 591.9	29683
 592.4	29719
 592.9	29645
 593.5	29614
 594.0	29578
 594.5	29564
 595.1	29511
 595.6	29449
 596.1	29473
 596.7	29410
 597.2	29411
 597.7	29323
 598.3	29314
 598.8	29259
 599.3	29225
 599.9	29167
 600.4	29132
 601.0	29118
 601.5	29090
 602.0	29059
 602.6	29016
 603.1	29020
 603.6	29029
 604.2	29113
 604.7	29049
 605.2	29122
 605.8	29053
 606.3	29097
 606.8	29182
 607.4	29198
 607.9	29266
 608.4	29245
 609.0	29317
 609.5	29379
 610.0	29393
 610.6	29507
 611.1	29485
 611.6	29565
 612.2	29605
 612.7	29699
 613.2	29740
 613.8	29734
 614.3	29825
 614.8	29911
 615.4	29921
 615.9	30070
 616.4	30183
 617.0	30198
 617.5	30334
 618.0	30430
 618.6	30446
 619.1	30567
 619.6	30697
 620.2	30798
 620.7	30943
 621.2	30993
 621.8	31099
 622.3	31191
 622.8	31226
 623.4	31313
 623.9	31424
 624.4	31442
 625.0	31470
 625.5	31494
 626.0	31519
 626.6	31580
 627.1	31561
 627.6	31506
 628.2	31480
 628.7	31523
 629.2	31495
 629.8	31497
 630.3	31465
 630.8	31434
 631.4	31365
 631.9	31349
 632.4	31195
 632.9	31145
 633.5	31100
 634.0	31012
 634.5	31007
 635.1	30908
 635.6	30847
 636.1	30783
 636.7	30748
 637.2	30700
 637.7	30567
 638.3	30614
 638.8	30557
 639.3	30528
 639.8	30437
 640.4	30427
 640.9	30414
 641.4	30313
 642.0	30263
 642.5	30256
 643.0	30223
 643.6	30286
 644.1	30239
 644.6	30247
 645.1	30259
 645.7	30258
 646.2	30221
 646.7	30248
 647.3	30279
 647.8	30301
 648.3	30283
 648.9	30349
 649.4	30287
 649.9	30375
 650.4	30407
 651.0	30484
 651.5	30525
 652.0	30602
 652.6	30588
 653.1	30705
 653.6	30665
 654.1	30749
 654.7	30760
 655.2	30877
 655.7	30945
 656.3	30989
 656.8	30989
 657.3	31077
 657.8	31063
 658.4	31109
 658.9	31157
 659.4	31249
 659.9	31274
 660.5	31268
 661.0	31328
 661.5	31395
 662.1	31375
 662.6	31403
 663.1	31379
 663.6	31471
 664.2	31435
 664.7	31412
 665.2	31364
 665.7	31463
 666.3	31427
 666.8	31421
 667.3	31421
 667.8	31391
 668.4	31401
 668.9	31394
 669.4	31359
 669.9	31369
 670.5	31293
 671.0	31298
 671.5	31245
 672.0	31273
 672.6	31254
 673.1	31273
 673.6	31171
 674.1	31183
 674.7	31159
 675.2	31184
 675.7	31044
 676.2	31028
 676.8	31077
 677.3	31062
 677.8	30984
 678.3	31058
 678.9	30979
 679.4	30910
 679.9	30949
 680.4	30933
 681.0	30891
 681.5	30900
 682.0	30847
 682.5	30871
 683.1	30775
 683.6	30783
 684.1	30726
 684.6	30807
 685.1	30751
 685.7	30755
 686.2	30723
 686.7	30686
 687.2	30673
 687.8	30729
 688.3	30663
 688.8	30684
 689.3	30630
 689.8	30656
 690.4	30643
 690.9	30662
 691.4	30679
 691.9	30686
 692.4	30661
 693.0	30726
 693.5	30692
 694.0	30689
 694.5	30684
 695.1	30670
 695.6	30626
 696.1	30698
 696.6	30687
 697.1	30699
 697.7	30725
 698.2	30657
 698.7	30689
 699.2	30655
 699.7	30657
 700.3	30611
 700.8	30585
 701.3	30663
 701.8	30621
 702.3	30559
 702.8	30561
 703.4	30540
 703.9	30513
 704.4	30467
 704.9	30423
 705.4	30411
 706.0	30455
 706.5	30425
 707.0	30332
 707.5	30297
 708.0	30298
 708.5	30231
 709.1	30267
 709.6	30220
 710.1	30157
 710.6	30122
 711.1	30090
 711.7	30092
 712.2	30053
 712.7	30053
 713.2	30007
 713.7	29999
 714.2	29945
 714.8	30008
 715.3	29945
 715.8	29941
 716.3	29936
 716.8	29864
 717.3	29850
 717.8	29936
 718.4	29949
 718.9	29895
 719.4	29972
 719.9	29883
 720.4	29931
 720.9	29947
 721.4	29939
 722.0	29972
 722.5	29968
 723.0	29966
 723.5	29983
 724.0	29960
 724.5	29957
 725.0	29998
 725.6	29943
 726.1	30001
 726.6	30101
 727.1	30054
 727.6	30096
 728.1	30122
 728.6	30084
 729.1	30083
 729.7	30075
 730.2	30097
 730.7	30129
 731.2	30170
 731.7	30147
 732.2	30161
 732.7	30132
 733.2	30177
 733.8	30147
 734.3	30184
 734.8	30177
 735.3	30213
 735.8	30213
 736.3	30216
 736.8	30267
 737.3	30324
 737.8	30281
 738.4	30292
 738.9	30264
 739.4	30349
 739.9	30331
 740.4	30356
 740.9	30341
 741.4	30338
 741.9	30334
 742.4	30347
 742.9	30335
 743.4	30386
 744.0	30293
 744.5	30285
 745.0	30277
 745.5	30326
 746.0	30280
 746.5	30287
 747.0	30215
 747.5	30182
 748.0	30150
 748.5	30147
 749.0	30144
 749.5	30195
 750.0	30033
 750.5	30047
 751.1	30023
 751.6	29997
 752.1	29954
 752.6	29902
 753.1	29911
 753.6	29827
 754.1	29771
 754.6	29775
 755.1	29703
 755.6	29675
 756.1	29567
 756.6	29612
 757.1	29561
 757.6	29506
 758.1	29435
 758.6	29396
 759.1	29297
 759.6	29294
 760.1	29205
 760.7	29131
 761.2	29170
 761.7	29097
 762.2	29048
 762.7	29044
 763.2	28898
 763.7	28927
 764.2	28827
 764.7	28796
 765.2	28771
 765.7	28691
 766.2	28623
 766.7	28607
 767.2	28519
 767.7	28476
 768.2	28417
 768.7	28345
 769.2	28293
 769.7	28294
 770.2	28239
 770.7	28210
 771.2	28152
 771.7	28107
 772.2	28087
 772.7	28102
 773.2	28054
 773.7	27984
 774.2	27913
 774.7	27932
 775.2	27888
 775.7	27853
 776.2	27815
 776.7	27831
 777.2	27743
 777.7	27785
 778.2	27750
 778.7	27775
 779.2	27762
 779.7	27771
 780.2	27612
 780.7	27665
 781.2	27647
 781.7	27689
 782.2	27610
 782.6	27659
 783.1	27650
 783.6	27609
 784.1	27557
 784.6	27543
 785.1	27550
 785.6	27536
 786.1	27541
 786.6	27548
 787.1	27489
 787.6	27469
 788.1	27443
 788.6	27426
 789.1	27399
 789.6	27397
 790.1	27401
 790.6	27378
 791.1	27275
 791.6	27254
 792.0	27237
 792.5	27249
 793.0	27195
 793.5	27165
 794.0	27084
 794.5	27133
 795.0	27066
 795.5	27025
 796.0	26997
 796.5	26916
 797.0	26901
 797.5	26897
 798.0	26725
 798.4	26717
 798.9	26661
 799.4	26632
 799.9	26584
 800.4	26430
 800.9	26470
 801.4	26465
 801.9	26379
 802.4	26265
 802.9	26265
 803.3	26211
 803.8	26132
 804.3	26046
 804.8	26044
 805.3	25958
 805.8	25877
 806.3	25821
 806.8	25753
 807.2	25699
 807.7	25629
 808.2	25599
 808.7	25484
 809.2	25441
 809.7	25329
 810.2	25343
 810.7	25237
 811.1	25198
 811.6	25151
 812.1	25076
 812.6	24983
 813.1	24994
 813.6	24962
 814.1	24911
 814.5	24828
 815.0	24809
 815.5	24719
 816.0	24652
 816.5	24670
 817.0	24588
 817.4	24535
 817.9	24531
 818.4	24434
 818.9	24476
 819.4	24401
 819.9	24354
 820.3	24295
 820.8	24265
 821.3	24236
 821.8	24208
 822.3	24136
 822.7	24088
 823.2	24125
 823.7	24056
 824.2	24028
 824.7	23989
 825.2	23981
 825.6	23933
 826.1	23897
 826.6	23928
 827.1	23895
 827.6	23871
 828.0	23800
 828.5	23751
 829.0	23767
 829.5	23692
 829.9	23687
 830.4	23715
 830.9	23677
 831.4	23688
 831.9	23633
 832.3	23684
 832.8	23618
 833.3	23602
 833.8	23658
 834.2	23634
 834.7	23483
 835.2	23551
 835.7	23543
 836.1	23522
 836.6	23486
 837.1	23482
 837.6	23479
 838.0	23494
 838.5	23501
 839.0	23493
 839.5	23475
 839.9	23389
 840.4	23379
 840.9	23337
 841.4	23359
 841.8	23364
 842.3	23372
 842.8	23368
 843.3	23356
 843.7	23250
 844.2	23230
 844.7	23290
 845.1	23254
 845.6	23174
 846.1	23177
 846.6	23195
 847.0	23091
 847.5	23120
 848.0	23088
 848.4	23107
 848.9	23055
 849.4	23012
 849.8	23020
 850.3	23005
 850.8	23028
 851.3	22974
 851.7	22955
 852.2	22943
 852.7	22916
 853.1	22881
 853.6	22806
 854.1	22836
 854.5	22779
 855.0	22751
 855.5	22730
 855.9	22763
 856.4	22727
 856.9	22629
 857.3	22657
 857.8	22595
 858.3	22607
 858.7	22540
 859.2	22547
 859.7	22548
 860.1	22590
 860.6	22550
 861.1	22473
 861.5	22493
 862.0	22472
 862.4	22421
 862.9	22371
 863.4	22396
 863.8	22384
 864.3	22367
 864.8	22266
 865.2	22294
 865.7	22294
 866.1	22289
 866.6	22195
 867.1	22250
 867.5	22216
 868.0	22177
 868.5	22107
 868.9	22086
 869.4	22163
 869.8	22103
 870.3	22041
 870.8	22095
 871.2	22036
 871.7	22011
 872.1	21935
 872.6	21969
 873.0	21929
 873.5	21986
 874.0	21962
 874.4	21832
 874.9	21849
 875.3	21791
 875.8	21683
 876.2	21466
 876.7	21285
 877.2	20926
 877.6	20479
 878.1	20010
