#xlabel Wavelength (nm)
#ylabel Spectrometer Array Counts
#title Exposure time is 9300 ms
## lambda	counts
 349.8	16696
 350.3	16963
 350.8	17210
 351.3	17390
 351.9	17487
 352.4	17591
 352.9	17665
 353.4	17621
 354.0	17621
 354.5	17654
 355.0	17658
 355.5	17674
 356.0	17631
 356.6	17600
 357.1	17641
 357.6	17621
 358.1	17647
 358.7	17585
 359.2	17609
 359.7	17621
 360.2	17653
 360.8	17624
 361.3	17713
 361.8	17658
 362.3	17687
 362.9	17648
 363.4	17716
 363.9	17717
 364.4	17742
 364.9	17665
 365.5	17729
 366.0	17709
 366.5	17666
 367.0	17709
 367.6	17731
 368.1	17727
 368.6	17665
 369.1	17722
 369.7	17767
 370.2	17697
 370.7	17697
 371.2	17739
 371.8	17795
 372.3	17715
 372.8	17785
 373.3	17801
 373.9	17748
 374.4	17762
 374.9	17806
 375.5	17710
 376.0	17826
 376.5	17791
 377.0	17815
 377.6	17759
 378.1	17829
 378.6	17770
 379.1	17777
 379.7	17763
 380.2	17832
 380.7	17831
 381.2	17787
 381.8	17774
 382.3	17820
 382.8	17797
 383.4	17841
 383.9	17798
 384.4	17937
 384.9	17856
 385.5	17875
 386.0	17873
 386.5	17944
 387.1	17879
 387.6	17892
 388.1	17898
 388.6	17910
 389.2	17903
 389.7	17922
 390.2	17901
 390.8	17988
 391.3	17961
 391.8	17957
 392.3	17947
 392.9	17943
 393.4	17936
 393.9	18005
 394.5	18010
 395.0	17955
 395.5	17983
 396.0	17983
 396.6	17954
 397.1	18035
 397.6	18035
 398.2	18035
 398.7	18037
 399.2	18123
 399.8	18001
 400.3	18063
 400.8	18110
 401.3	18088
 401.9	18101
 402.4	18118
 402.9	18105
 403.5	18134
 404.0	18123
 404.5	18079
 405.1	18083
 405.6	18171
 406.1	18143
 406.7	18161
 407.2	18165
 407.7	18241
 408.2	18239
 408.8	18242
 409.3	18273
 409.8	18317
 410.4	18285
 410.9	18282
 411.4	18241
 412.0	18298
 412.5	18345
 413.0	18307
 413.6	18343
 414.1	18308
 414.6	18343
 415.2	18383
 415.7	18320
 416.2	18371
 416.8	18353
 417.3	18342
 417.8	18361
 418.4	18451
 418.9	18391
 419.4	18521
 420.0	18407
 420.5	18473
 421.0	18419
 421.5	18499
 422.1	18483
 422.6	18532
 423.1	18549
 423.7	18527
 424.2	18515
 424.7	18553
 425.3	18527
 425.8	18545
 426.3	18539
 426.9	18603
 427.4	18542
 427.9	18647
 428.5	18591
 429.0	18626
 429.6	18594
 430.1	18671
 430.6	18669
 431.2	18617
 431.7	18711
 432.2	18686
 432.8	18672
 433.3	18779
 433.8	18785
 434.4	18761
 434.9	18777
 435.4	18825
 436.0	18811
 436.5	18811
 437.0	18880
 437.6	18857
 438.1	18911
 438.6	18915
 439.2	18947
 439.7	18935
 440.2	18881
 440.8	18912
 441.3	18913
 441.8	18917
 442.4	18879
 442.9	18908
 443.5	18945
 444.0	18933
 444.5	18961
 445.1	18885
 445.6	18921
 446.1	18936
 446.7	18958
 447.2	18977
 447.7	18973
 448.3	19042
 448.8	19009
 449.3	19047
 449.9	19003
 450.4	19106
 450.9	19150
 451.5	19159
 452.0	19138
 452.6	19169
 453.1	19224
 453.6	19247
 454.2	19151
 454.7	19221
 455.2	19252
 455.8	19298
 456.3	19249
 456.8	19374
 457.4	19307
 457.9	19323
 458.5	19369
 459.0	19332
 459.5	19374
 460.1	19330
 460.6	19370
 461.1	19352
 461.7	19399
 462.2	19356
 462.7	19393
 463.3	19327
 463.8	19396
 464.4	19458
 464.9	19406
 465.4	19467
 466.0	19377
 466.5	19441
 467.0	19393
 467.6	19461
 468.1	19549
 468.7	19479
 469.2	19435
 469.7	19520
 470.3	19517
 470.8	19554
 471.3	19539
 471.9	19503
 472.4	19563
 473.0	19607
 473.5	19631
 474.0	19629
 474.6	19640
 475.1	19641
 475.6	19710
 476.2	19726
 476.7	19705
 477.3	19773
 477.8	19719
 478.3	19659
 478.9	19859
 479.4	19751
 479.9	19771
 480.5	19761
 481.0	19787
 481.6	19819
 482.1	19887
 482.6	19875
 483.2	19886
 483.7	19999
 484.2	19951
 484.8	19805
 485.3	19907
 485.9	19980
 486.4	19947
 486.9	19974
 487.5	19945
 488.0	19957
 488.6	20015
 489.1	20031
 489.6	20092
 490.2	20085
 490.7	20050
 491.2	20023
 491.8	20082
 492.3	20040
 492.9	20088
 493.4	20100
 493.9	20112
 494.5	20115
 495.0	20179
 495.6	20104
 496.1	20110
 496.6	20165
 497.2	20087
 497.7	20047
 498.2	20134
 498.8	20148
 499.3	20067
 499.9	20127
 500.4	20127
 500.9	20116
 501.5	20106
 502.0	20188
 502.6	20168
 503.1	20253
 503.6	20234
 504.2	20194
 504.7	20213
 505.2	20289
 505.8	20299
 506.3	20385
 506.9	20405
 507.4	20391
 507.9	20380
 508.5	20430
 509.0	20495
 509.6	20568
 510.1	20558
 510.6	20606
 511.2	20644
 511.7	20641
 512.2	20719
 512.8	20747
 513.3	20726
 513.9	20730
 514.4	20793
 514.9	20866
 515.5	20775
 516.0	20851
 516.6	20823
 517.1	20865
 517.6	20846
 518.2	20821
 518.7	20756
 519.3	20796
 519.8	20833
 520.3	20822
 520.9	20764
 521.4	20766
 521.9	20805
 522.5	20729
 523.0	20740
 523.6	20768
 524.1	20628
 524.6	20674
 525.2	20696
 525.7	20729
 526.3	20659
 526.8	20751
 527.3	20707
 527.9	20737
 528.4	20727
 528.9	20793
 529.5	20815
 530.0	20809
 530.6	20867
 531.1	20882
 531.6	20825
 532.2	20948
 532.7	20926
 533.3	20983
 533.8	21117
 534.3	21165
 534.9	21182
 535.4	21143
 536.0	21229
 536.5	21292
 537.0	21271
 537.6	21315
 538.1	21375
 538.6	21410
 539.2	21363
 539.7	21396
 540.3	21501
 540.8	21473
 541.3	21438
 541.9	21482
 542.4	21487
 543.0	21556
 543.5	21519
 544.0	21503
 544.6	21547
 545.1	21551
 545.6	21581
 546.2	21565
 546.7	21489
 547.3	21535
 547.8	21514
 548.3	21560
 548.9	21473
 549.4	21475
 550.0	21437
 550.5	21501
 551.0	21540
 551.6	21493
 552.1	21505
 552.6	21504
 553.2	21479
 553.7	21455
 554.3	21489
 554.8	21559
 555.3	21428
 555.9	21491
 556.4	21462
 556.9	21555
 557.5	21586
 558.0	21549
 558.6	21533
 559.1	21609
 559.6	21601
 560.2	21611
 560.7	21613
 561.3	21594
 561.8	21585
 562.3	21701
 562.9	21695
 563.4	21730
 563.9	21731
 564.5	21739
 565.0	21730
 565.6	21755
 566.1	21758
 566.6	21765
 567.2	21757
 567.7	21853
 568.2	21772
 568.8	21789
 569.3	21764
 569.9	21830
 570.4	21822
 570.9	21797
 571.5	21789
 572.0	21790
 572.5	21846
 573.1	21801
 573.6	21847
 574.1	21845
 574.7	21851
 575.2	21827
 575.8	21873
 576.3	21951
 576.8	21927
 577.4	21943
 577.9	21967
 578.4	21935
 579.0	21954
 579.5	22056
 580.1	21994
 580.6	22010
 581.1	22103
 581.7	22127
 582.2	22074
 582.7	22123
 583.3	22175
 583.8	22153
 584.3	22116
 584.9	22175
 585.4	22187
 586.0	22168
 586.5	22210
 587.0	22180
 587.6	22252
 588.1	22223
 588.6	22290
 589.2	22239
 589.7	22252
 590.2	22241
 590.8	22235
 591.3	22261
 591.9	22208
 592.4	22261
 592.9	22196
 593.5	22185
 594.0	22170
 594.5	22175
 595.1	22155
 595.6	22124
 596.1	22170
 596.7	22122
 597.2	22153
 597.7	22084
 598.3	22094
 598.8	22055
 599.3	22061
 599.9	22032
 600.4	22019
 601.0	22017
 601.5	21994
 602.0	21986
 602.6	21934
 603.1	21948
 603.6	21948
 604.2	22051
 604.7	21959
 605.2	22027
 605.8	21950
 606.3	21977
 606.8	22051
 607.4	22033
 607.9	22074
 608.4	22033
 609.0	22076
 609.5	22121
 610.0	22104
 610.6	22203
 611.1	22135
 611.6	22163
 612.2	22180
 612.7	22245
 613.2	22248
 613.8	22195
 614.3	22240
 614.8	22296
 615.4	22248
 615.9	22347
 616.4	22414
 617.0	22386
 617.5	22483
 618.0	22514
 618.6	22456
 619.1	22515
 619.6	22602
 620.2	22614
 620.7	22698
 621.2	22675
 621.8	22733
 622.3	22773
 622.8	22757
 623.4	22795
 623.9	22863
 624.4	22857
 625.0	22859
 625.5	22867
 626.0	22882
 626.6	22935
 627.1	22923
 627.6	22870
 628.2	22844
 628.7	22873
 629.2	22848
 629.8	22878
 630.3	22875
 630.8	22857
 631.4	22826
 631.9	22843
 632.4	22727
 632.9	22728
 633.5	22712
 634.0	22659
 634.5	22721
 635.1	22648
 635.6	22625
 636.1	22589
 636.7	22620
 637.2	22605
 637.7	22506
 638.3	22587
 638.8	22570
 639.3	22569
 639.8	22512
 640.4	22523
 640.9	22540
 641.4	22443
 642.0	22422
 642.5	22437
 643.0	22407
 643.6	22485
 644.1	22440
 644.6	22449
 645.1	22484
 645.7	22463
 646.2	22427
 646.7	22441
 647.3	22476
 647.8	22483
 648.3	22462
 648.9	22505
 649.4	22430
 649.9	22503
 650.4	22509
 651.0	22555
 651.5	22578
 652.0	22635
 652.6	22589
 653.1	22677
 653.6	22604
 654.1	22683
 654.7	22639
 655.2	22732
 655.7	22774
 656.3	22794
 656.8	22750
 657.3	22819
 657.8	22773
 658.4	22774
 658.9	22788
 659.4	22871
 659.9	22876
 660.5	22861
 661.0	22906
 661.5	22950
 662.1	22919
 662.6	22933
 663.1	22902
 663.6	22973
 664.2	22933
 664.7	22901
 665.2	22839
 665.7	22951
 666.3	22919
 666.8	22927
 667.3	22927
 667.8	22892
 668.4	22913
 668.9	22916
 669.4	22899
 669.9	22922
 670.5	22859
 671.0	22877
 671.5	22826
 672.0	22879
 672.6	22874
 673.1	22901
 673.6	22808
 674.1	22841
 674.7	22829
 675.2	22866
 675.7	22731
 676.2	22736
 676.8	22790
 677.3	22803
 677.8	22731
 678.3	22830
 678.9	22764
 679.4	22706
 679.9	22759
 680.4	22765
 681.0	22728
 681.5	22755
 682.0	22719
 682.5	22746
 683.1	22659
 683.6	22698
 684.1	22641
 684.6	22736
 685.1	22682
 685.7	22694
 686.2	22669
 686.7	22636
 687.2	22619
 687.8	22687
 688.3	22629
 688.8	22657
 689.3	22601
 689.8	22627
 690.4	22620
 690.9	22632
 691.4	22633
 691.9	22653
 692.4	22614
 693.0	22680
 693.5	22657
 694.0	22638
 694.5	22631
 695.1	22613
 695.6	22582
 696.1	22645
 696.6	22629
 697.1	22646
 697.7	22673
 698.2	22611
 698.7	22635
 699.2	22594
 699.7	22601
 700.3	22582
 700.8	22555
 701.3	22654
 701.8	22611
 702.3	22555
 702.8	22562
 703.4	22535
 703.9	22536
 704.4	22529
 704.9	22490
 705.4	22489
 706.0	22575
 706.5	22563
 707.0	22471
 707.5	22459
 708.0	22484
 708.5	22435
 709.1	22486
 709.6	22453
 710.1	22417
 710.6	22387
 711.1	22385
 711.7	22397
 712.2	22397
 712.7	22403
 713.2	22378
 713.7	22380
 714.2	22334
 714.8	22411
 715.3	22357
 715.8	22361
 716.3	22367
 716.8	22283
 717.3	22270
 717.8	22371
 718.4	22387
 718.9	22325
 719.4	22405
 719.9	22321
 720.4	22358
 720.9	22369
 721.4	22364
 722.0	22381
 722.5	22375
 723.0	22361
 723.5	22374
 724.0	22339
 724.5	22336
 725.0	22361
 725.6	22297
 726.1	22351
 726.6	22457
 727.1	22399
 727.6	22435
 728.1	22454
 728.6	22419
 729.1	22403
 729.7	22401
 730.2	22420
 730.7	22452
 731.2	22480
 731.7	22463
 732.2	22477
 732.7	22451
 733.2	22495
 733.8	22475
 734.3	22491
 734.8	22468
 735.3	22489
 735.8	22479
 736.3	22462
 736.8	22500
 737.3	22538
 737.8	22492
 738.4	22493
 738.9	22450
 739.4	22537
 739.9	22518
 740.4	22523
 740.9	22514
 741.4	22511
 741.9	22505
 742.4	22524
 742.9	22507
 743.4	22587
 744.0	22505
 744.5	22493
 745.0	22503
 745.5	22573
 746.0	22543
 746.5	22547
 747.0	22491
 747.5	22477
 748.0	22446
 748.5	22464
 749.0	22466
 749.5	22549
 750.0	22388
 750.5	22437
 751.1	22440
 751.6	22431
 752.1	22419
 752.6	22375
 753.1	22400
 753.6	22337
 754.1	22303
 754.6	22339
 755.1	22298
 755.6	22297
 756.1	22215
 756.6	22297
 757.1	22261
 757.6	22231
 758.1	22195
 758.6	22202
 759.1	22125
 759.6	22153
 760.1	22090
 760.7	22055
 761.2	22116
 761.7	22057
 762.2	22031
 762.7	22075
 763.2	21937
 763.7	22005
 764.2	21935
 764.7	21933
 765.2	21947
 765.7	21911
 766.2	21861
 766.7	21894
 767.2	21842
 767.7	21837
 768.2	21807
 768.7	21771
 769.2	21752
 769.7	21783
 770.2	21749
 770.7	21747
 771.2	21721
 771.7	21691
 772.2	21697
 772.7	21735
 773.2	21703
 773.7	21659
 774.2	21601
 774.7	21644
 775.2	21630
 775.7	21605
 776.2	21593
 776.7	21612
 777.2	21541
 777.7	21603
 778.2	21589
 778.7	21620
 779.2	21620
 779.7	21652
 780.2	21500
 780.7	21562
 781.2	21567
 781.7	21627
 782.2	21550
 782.6	21614
 783.1	21613
 783.6	21577
 784.1	21549
 784.6	21540
 785.1	21543
 785.6	21532
 786.1	21560
 786.6	21575
 787.1	21514
 787.6	21513
 788.1	21507
 788.6	21499
 789.1	21483
 789.6	21514
 790.1	21521
 790.6	21519
 791.1	21422
 791.6	21424
 792.0	21435
 792.5	21466
 793.0	21447
 793.5	21432
 794.0	21362
 794.5	21437
 795.0	21419
 795.5	21387
 796.0	21389
 796.5	21329
 797.0	21353
 797.5	21383
 798.0	21242
 798.4	21265
 798.9	21243
 799.4	21249
 799.9	21240
 800.4	21111
 800.9	21191
 801.4	21245
 801.9	21189
 802.4	21115
 802.9	21166
 803.3	21147
 803.8	21099
 804.3	21041
 804.8	21092
 805.3	21037
 805.8	21003
 806.3	20994
 806.8	20965
 807.2	20947
 807.7	20909
 808.2	20925
 808.7	20844
 809.2	20841
 809.7	20769
 810.2	20825
 810.7	20751
 811.1	20757
 811.6	20740
 812.1	20697
 812.6	20647
 813.1	20686
 813.6	20686
 814.1	20659
 814.5	20609
 815.0	20616
 815.5	20577
 816.0	20532
 816.5	20583
 817.0	20527
 817.4	20498
 817.9	20528
 818.4	20457
 818.9	20522
 819.4	20471
 819.9	20444
 820.3	20409
 820.8	20405
 821.3	20395
 821.8	20399
 822.3	20352
 822.7	20326
 823.2	20375
 823.7	20329
 824.2	20321
 824.7	20299
 825.2	20309
 825.6	20285
 826.1	20272
 826.6	20313
 827.1	20298
 827.6	20283
 828.0	20228
 828.5	20195
 829.0	20227
 829.5	20166
 829.9	20177
 830.4	20214
 830.9	20202
 831.4	20216
 831.9	20176
 832.3	20250
 832.8	20195
 833.3	20181
 833.8	20259
 834.2	20247
 834.7	20098
 835.2	20185
 835.7	20178
 836.1	20173
 836.6	20149
 837.1	20151
 837.6	20164
 838.0	20192
 838.5	20208
 839.0	20207
 839.5	20199
 839.9	20120
 840.4	20118
 840.9	20085
 841.4	20122
 841.8	20133
 842.3	20147
 842.8	20167
 843.3	20155
 843.7	20061
 844.2	20045
 844.7	20128
 845.1	20097
 845.6	20021
 846.1	20035
 846.6	20069
 847.0	19969
 847.5	20014
 848.0	19992
 848.4	20025
 848.9	19996
 849.4	19968
 849.8	19989
 850.3	19979
 850.8	20021
 851.3	19984
 851.7	19977
 852.2	19977
 852.7	19967
 853.1	19935
 853.6	19883
 854.1	19921
 854.5	19887
 855.0	19872
 855.5	19856
 855.9	19917
 856.4	19906
 856.9	19811
 857.3	19859
 857.8	19825
 858.3	19863
 858.7	19812
 859.2	19826
 859.7	19820
 860.1	19873
 860.6	19846
 861.1	19787
 861.5	19821
 862.0	19828
 862.4	19787
 862.9	19749
 863.4	19789
 863.8	19787
 864.3	19786
 864.8	19697
 865.2	19742
 865.7	19762
 866.1	19768
 866.6	19687
 867.1	19755
 867.5	19733
 868.0	19705
 868.5	19656
 868.9	19667
 869.4	19752
 869.8	19700
 870.3	19654
 870.8	19713
 871.2	19669
 871.7	19649
 872.1	19596
 872.6	19638
 873.0	19621
 873.5	19696
 874.0	19689
 874.4	19587
 874.9	19633
 875.3	19602
 875.8	19521
 876.2	19338
 876.7	19192
 877.2	18864
 877.6	18453
 878.1	18042
