#xlabel Wavelength (nm)
#ylabel Spectrometer Array Counts
#title Exposure time is 12000 ms
## lambda	counts
 349.8	20818
 350.3	21076
 350.8	21344
 351.3	21580
 351.9	21727
 352.4	21881
 352.9	21990
 353.4	21973
 354.0	21999
 354.5	22075
 355.0	22085
 355.5	22115
 356.0	22078
 356.6	22038
 357.1	22090
 357.6	22066
 358.1	22096
 358.7	22030
 359.2	22057
 359.7	22072
 360.2	22121
 360.8	22084
 361.3	22189
 361.8	22127
 362.3	22165
 362.9	22125
 363.4	22210
 363.9	22215
 364.4	22246
 364.9	22155
 365.5	22243
 366.0	22223
 366.5	22174
 367.0	22231
 367.6	22259
 368.1	22271
 368.6	22200
 369.1	22263
 369.7	22327
 370.2	22242
 370.7	22244
 371.2	22298
 371.8	22364
 372.3	22284
 372.8	22375
 373.3	22400
 373.9	22335
 374.4	22360
 374.9	22419
 375.5	22303
 376.0	22450
 376.5	22405
 377.0	22453
 377.6	22402
 378.1	22487
 378.6	22421
 379.1	22442
 379.7	22427
 380.2	22519
 380.7	22533
 381.2	22489
 381.8	22481
 382.3	22529
 382.8	22514
 383.4	22568
 383.9	22517
 384.4	22696
 384.9	22589
 385.5	22606
 386.0	22619
 386.5	22701
 387.1	22629
 387.6	22656
 388.1	22653
 388.6	22684
 389.2	22675
 389.7	22709
 390.2	22699
 390.8	22815
 391.3	22786
 391.8	22793
 392.3	22787
 392.9	22787
 393.4	22797
 393.9	22885
 394.5	22898
 395.0	22855
 395.5	22893
 396.0	22897
 396.6	22869
 397.1	22979
 397.6	22985
 398.2	22989
 398.7	22982
 399.2	23106
 399.8	22959
 400.3	23036
 400.8	23089
 401.3	23057
 401.9	23070
 402.4	23110
 402.9	23098
 403.5	23135
 404.0	23125
 404.5	23084
 405.1	23107
 405.6	23223
 406.1	23199
 406.7	23223
 407.2	23242
 407.7	23343
 408.2	23347
 408.8	23366
 409.3	23411
 409.8	23463
 410.4	23444
 410.9	23461
 411.4	23402
 412.0	23503
 412.5	23556
 413.0	23512
 413.6	23569
 414.1	23539
 414.6	23565
 415.2	23629
 415.7	23580
 416.2	23638
 416.8	23627
 417.3	23619
 417.8	23647
 418.4	23763
 418.9	23701
 419.4	23862
 420.0	23736
 420.5	23814
 421.0	23758
 421.5	23859
 422.1	23835
 422.6	23900
 423.1	23933
 423.7	23912
 424.2	23897
 424.7	23944
 425.3	23925
 425.8	23954
 426.3	23939
 426.9	24015
 427.4	23954
 427.9	24096
 428.5	24033
 429.0	24085
 429.6	24063
 430.1	24159
 430.6	24182
 431.2	24133
 431.7	24266
 432.2	24254
 432.8	24248
 433.3	24387
 433.8	24418
 434.4	24399
 434.9	24433
 435.4	24515
 436.0	24506
 436.5	24528
 437.0	24613
 437.6	24591
 438.1	24657
 438.6	24681
 439.2	24711
 439.7	24713
 440.2	24643
 440.8	24675
 441.3	24683
 441.8	24681
 442.4	24649
 442.9	24675
 443.5	24722
 444.0	24712
 444.5	24733
 445.1	24639
 445.6	24689
 446.1	24723
 446.7	24757
 447.2	24787
 447.7	24785
 448.3	24887
 448.8	24872
 449.3	24932
 449.9	24898
 450.4	25057
 450.9	25116
 451.5	25155
 452.0	25161
 452.6	25205
 453.1	25313
 453.6	25347
 454.2	25251
 454.7	25357
 455.2	25417
 455.8	25493
 456.3	25449
 456.8	25597
 457.4	25534
 457.9	25553
 458.5	25613
 459.0	25570
 459.5	25623
 460.1	25571
 460.6	25626
 461.1	25614
 461.7	25662
 462.2	25618
 462.7	25647
 463.3	25567
 463.8	25645
 464.4	25721
 464.9	25661
 465.4	25747
 466.0	25655
 466.5	25749
 467.0	25679
 467.6	25771
 468.1	25886
 468.7	25838
 469.2	25773
 469.7	25912
 470.3	25908
 470.8	25974
 471.3	25970
 471.9	25954
 472.4	26034
 473.0	26095
 473.5	26145
 474.0	26159
 474.6	26183
 475.1	26205
 475.6	26298
 476.2	26335
 476.7	26317
 477.3	26399
 477.8	26351
 478.3	26287
 478.9	26530
 479.4	26426
 479.9	26457
 480.5	26469
 481.0	26512
 481.6	26554
 482.1	26652
 482.6	26641
 483.2	26684
 483.7	26815
 484.2	26779
 484.8	26632
 485.3	26754
 485.9	26843
 486.4	26833
 486.9	26881
 487.5	26844
 488.0	26873
 488.6	26963
 489.1	26986
 489.6	27058
 490.2	27063
 490.7	27037
 491.2	27002
 491.8	27085
 492.3	27027
 492.9	27089
 493.4	27094
 493.9	27121
 494.5	27120
 495.0	27184
 495.6	27093
 496.1	27097
 496.6	27157
 497.2	27059
 497.7	27019
 498.2	27115
 498.8	27119
 499.3	27036
 499.9	27098
 500.4	27102
 500.9	27100
 501.5	27102
 502.0	27202
 502.6	27194
 503.1	27313
 503.6	27295
 504.2	27287
 504.7	27323
 505.2	27423
 505.8	27446
 506.3	27591
 506.9	27652
 507.4	27659
 507.9	27679
 508.5	27759
 509.0	27865
 509.6	27988
 510.1	28002
 510.6	28085
 511.2	28140
 511.7	28177
 512.2	28282
 512.8	28342
 513.3	28331
 513.9	28337
 514.4	28438
 514.9	28541
 515.5	28436
 516.0	28523
 516.6	28476
 517.1	28527
 517.6	28495
 518.2	28455
 518.7	28371
 519.3	28422
 519.8	28422
 520.3	28381
 520.9	28322
 521.4	28307
 521.9	28351
 522.5	28225
 523.0	28224
 523.6	28257
 524.1	28085
 524.6	28126
 525.2	28146
 525.7	28191
 526.3	28123
 526.8	28225
 527.3	28174
 527.9	28225
 528.4	28221
 528.9	28299
 529.5	28347
 530.0	28363
 530.6	28457
 531.1	28486
 531.6	28435
 532.2	28599
 532.7	28611
 533.3	28698
 533.8	28874
 534.3	28966
 534.9	29003
 535.4	29006
 536.0	29131
 536.5	29213
 537.0	29231
 537.6	29294
 538.1	29384
 538.6	29452
 539.2	29419
 539.7	29480
 540.3	29620
 540.8	29595
 541.3	29572
 541.9	29631
 542.4	29646
 543.0	29730
 543.5	29690
 544.0	29661
 544.6	29708
 545.1	29733
 545.6	29757
 546.2	29732
 546.7	29622
 547.3	29688
 547.8	29657
 548.3	29695
 548.9	29583
 549.4	29585
 550.0	29539
 550.5	29602
 551.0	29639
 551.6	29585
 552.1	29581
 552.6	29589
 553.2	29531
 553.7	29509
 554.3	29550
 554.8	29627
 555.3	29461
 555.9	29535
 556.4	29515
 556.9	29642
 557.5	29671
 558.0	29637
 558.6	29632
 559.1	29710
 559.6	29713
 560.2	29742
 560.7	29773
 561.3	29746
 561.8	29730
 562.3	29882
 562.9	29879
 563.4	29943
 563.9	29935
 564.5	29965
 565.0	29968
 565.6	29991
 566.1	29998
 566.6	30012
 567.2	30000
 567.7	30113
 568.2	30048
 568.8	30055
 569.3	30033
 569.9	30106
 570.4	30087
 570.9	30064
 571.5	30063
 572.0	30069
 572.5	30134
 573.1	30087
 573.6	30161
 574.1	30153
 574.7	30159
 575.2	30151
 575.8	30213
 576.3	30311
 576.8	30283
 577.4	30311
 577.9	30357
 578.4	30336
 579.0	30369
 579.5	30512
 580.1	30436
 580.6	30486
 581.1	30582
 581.7	30638
 582.2	30597
 582.7	30657
 583.3	30724
 583.8	30714
 584.3	30679
 584.9	30766
 585.4	30775
 586.0	30775
 586.5	30817
 587.0	30801
 587.6	30895
 588.1	30869
 588.6	30938
 589.2	30889
 589.7	30918
 590.2	30915
 590.8	30902
 591.3	30923
 591.9	30858
 592.4	30916
 592.9	30836
 593.5	30811
 594.0	30791
 594.5	30790
 595.1	30746
 595.6	30689
 596.1	30726
 596.7	30685
 597.2	30703
 597.7	30612
 598.3	30613
 598.8	30567
 599.3	30547
 599.9	30485
 600.4	30465
 601.0	30463
 601.5	30437
 602.0	30411
 602.6	30355
 603.1	30367
 603.6	30385
 604.2	30487
 604.7	30389
 605.2	30473
 605.8	30387
 606.3	30420
 606.8	30500
 607.4	30511
 607.9	30572
 608.4	30529
 609.0	30592
 609.5	30655
 610.0	30646
 610.6	30761
 611.1	30708
 611.6	30773
 612.2	30801
 612.7	30892
 613.2	30922
 613.8	30879
 614.3	30945
 614.8	31020
 615.4	30999
 615.9	31139
 616.4	31242
 617.0	31227
 617.5	31350
 618.0	31425
 618.6	31405
 619.1	31495
 619.6	31607
 620.2	31678
 620.7	31799
 621.2	31814
 621.8	31894
 622.3	31974
 622.8	31991
 623.4	32063
 623.9	32154
 624.4	32158
 625.0	32177
 625.5	32182
 626.0	32203
 626.6	32274
 627.1	32253
 627.6	32197
 628.2	32165
 628.7	32207
 629.2	32190
 629.8	32198
 630.3	32179
 630.8	32148
 631.4	32095
 631.9	32095
 632.4	31939
 632.9	31933
 633.5	31898
 634.0	31826
 634.5	31842
 635.1	31753
 635.6	31719
 636.1	31661
 636.7	31658
 637.2	31626
 637.7	31491
 638.3	31565
 638.8	31527
 639.3	31522
 639.8	31423
 640.4	31419
 640.9	31429
 641.4	31321
 642.0	31279
 642.5	31286
 643.0	31244
 643.6	31334
 644.1	31284
 644.6	31295
 645.1	31311
 645.7	31307
 646.2	31253
 646.7	31282
 647.3	31312
 647.8	31335
 648.3	31303
 648.9	31368
 649.4	31278
 649.9	31363
 650.4	31401
 651.0	31465
 651.5	31487
 652.0	31573
 652.6	31539
 653.1	31645
 653.6	31581
 654.1	31665
 654.7	31644
 655.2	31763
 655.7	31818
 656.3	31847
 656.8	31829
 657.3	31901
 657.8	31870
 658.4	31909
 658.9	31943
 659.4	32030
 659.9	32047
 660.5	32031
 661.0	32088
 661.5	32148
 662.1	32117
 662.6	32136
 663.1	32106
 663.6	32205
 664.2	32151
 664.7	32131
 665.2	32065
 665.7	32190
 666.3	32142
 666.8	32134
 667.3	32137
 667.8	32096
 668.4	32114
 668.9	32123
 669.4	32093
 669.9	32105
 670.5	32021
 671.0	32043
 671.5	31990
 672.0	32020
 672.6	32005
 673.1	32041
 673.6	31924
 674.1	31947
 674.7	31933
 675.2	31964
 675.7	31819
 676.2	31792
 676.8	31868
 677.3	31861
 677.8	31770
 678.3	31865
 678.9	31782
 679.4	31708
 679.9	31775
 680.4	31753
 681.0	31710
 681.5	31731
 682.0	31681
 682.5	31719
 683.1	31611
 683.6	31642
 684.1	31572
 684.6	31681
 685.1	31618
 685.7	31632
 686.2	31610
 686.7	31562
 687.2	31542
 687.8	31617
 688.3	31561
 688.8	31575
 689.3	31511
 689.8	31553
 690.4	31533
 690.9	31552
 691.4	31571
 691.9	31577
 692.4	31550
 693.0	31625
 693.5	31589
 694.0	31578
 694.5	31572
 695.1	31553
 695.6	31507
 696.1	31587
 696.6	31571
 697.1	31597
 697.7	31623
 698.2	31539
 698.7	31579
 699.2	31537
 699.7	31554
 700.3	31499
 700.8	31471
 701.3	31571
 701.8	31523
 702.3	31467
 702.8	31463
 703.4	31448
 703.9	31423
 704.4	31392
 704.9	31353
 705.4	31343
 706.0	31408
 706.5	31381
 707.0	31282
 707.5	31257
 708.0	31262
 708.5	31204
 709.1	31256
 709.6	31198
 710.1	31135
 710.6	31093
 711.1	31052
 711.7	31053
 712.2	31017
 712.7	31012
 713.2	30952
 713.7	30936
 714.2	30850
 714.8	30923
 715.3	30834
 715.8	30800
 716.3	30780
 716.8	30677
 717.3	30641
 717.8	30723
 718.4	30726
 718.9	30641
 719.4	30733
 719.9	30619
 720.4	30659
 720.9	30690
 721.4	30679
 722.0	30713
 722.5	30707
 723.0	30709
 723.5	30747
 724.0	30718
 724.5	30713
 725.0	30766
 725.6	30715
 726.1	30795
 726.6	30914
 727.1	30863
 727.6	30929
 728.1	30962
 728.6	30923
 729.1	30936
 729.7	30929
 730.2	30973
 730.7	31007
 731.2	31057
 731.7	31045
 732.2	31078
 732.7	31052
 733.2	31113
 733.8	31082
 734.3	31120
 734.8	31110
 735.3	31147
 735.8	31157
 736.3	31135
 736.8	31201
 737.3	31266
 737.8	31220
 738.4	31218
 738.9	31176
 739.4	31282
 739.9	31277
 740.4	31303
 740.9	31277
 741.4	31287
 741.9	31281
 742.4	31300
 742.9	31282
 743.4	31367
 744.0	31275
 744.5	31266
 745.0	31266
 745.5	31357
 746.0	31317
 746.5	31323
 747.0	31251
 747.5	31225
 748.0	31199
 748.5	31218
 749.0	31213
 749.5	31297
 750.0	31116
 750.5	31155
 751.1	31141
 751.6	31133
 752.1	31096
 752.6	31050
 753.1	31081
 753.6	30994
 754.1	30955
 754.6	30979
 755.1	30911
 755.6	30911
 756.1	30803
 756.6	30879
 757.1	30836
 757.6	30800
 758.1	30745
 758.6	30715
 759.1	30625
 759.6	30652
 760.1	30570
 760.7	30501
 761.2	30567
 761.7	30495
 762.2	30451
 762.7	30466
 763.2	30329
 763.7	30383
 764.2	30285
 764.7	30270
 765.2	30267
 765.7	30196
 766.2	30143
 766.7	30159
 767.2	30075
 767.7	30059
 768.2	30017
 768.7	29958
 769.2	29913
 769.7	29936
 770.2	29888
 770.7	29862
 771.2	29815
 771.7	29785
 772.2	29784
 772.7	29814
 773.2	29774
 773.7	29704
 774.2	29637
 774.7	29673
 775.2	29629
 775.7	29605
 776.2	29581
 776.7	29601
 777.2	29512
 777.7	29585
 778.2	29544
 778.7	29587
 779.2	29580
 779.7	29601
 780.2	29419
 780.7	29487
 781.2	29475
 781.7	29537
 782.2	29461
 782.6	29519
 783.1	29516
 783.6	29479
 784.1	29425
 784.6	29413
 785.1	29418
 785.6	29417
 786.1	29433
 786.6	29450
 787.1	29384
 787.6	29373
 788.1	29351
 788.6	29335
 789.1	29305
 789.6	29326
 790.1	29341
 790.6	29329
 791.1	29215
 791.6	29207
 792.0	29201
 792.5	29229
 793.0	29179
 793.5	29167
 794.0	29095
 794.5	29159
 795.0	29103
 795.5	29079
 796.0	29054
 796.5	28970
 797.0	28975
 797.5	29005
 798.0	28814
 798.4	28822
 798.9	28783
 799.4	28771
 799.9	28750
 800.4	28573
 800.9	28662
 801.4	28683
 801.9	28611
 802.4	28495
 802.9	28524
 803.3	28493
 803.8	28423
 804.3	28341
 804.8	28371
 805.3	28299
 805.8	28232
 806.3	28195
 806.8	28150
 807.2	28107
 807.7	28054
 808.2	28040
 808.7	27929
 809.2	27902
 809.7	27804
 810.2	27851
 810.7	27743
 811.1	27730
 811.6	27711
 812.1	27623
 812.6	27546
 813.1	27568
 813.6	27558
 814.1	27525
 814.5	27453
 815.0	27457
 815.5	27377
 816.0	27314
 816.5	27343
 817.0	27275
 817.4	27231
 817.9	27242
 818.4	27139
 818.9	27217
 819.4	27153
 819.9	27100
 820.3	27055
 820.8	27033
 821.3	27031
 821.8	27001
 822.3	26929
 822.7	26893
 823.2	26947
 823.7	26873
 824.2	26872
 824.7	26827
 825.2	26831
 825.6	26791
 826.1	26763
 826.6	26809
 827.1	26774
 827.6	26759
 828.0	26677
 828.5	26645
 829.0	26671
 829.5	26600
 829.9	26595
 830.4	26647
 830.9	26607
 831.4	26631
 831.9	26571
 832.3	26637
 832.8	26565
 833.3	26560
 833.8	26631
 834.2	26619
 834.7	26445
 835.2	26529
 835.7	26526
 836.1	26516
 836.6	26490
 837.1	26479
 837.6	26475
 838.0	26505
 838.5	26515
 839.0	26515
 839.5	26505
 839.9	26411
 840.4	26410
 840.9	26366
 841.4	26399
 841.8	26419
 842.3	26426
 842.8	26433
 843.3	26419
 843.7	26306
 844.2	26288
 844.7	26365
 845.1	26332
 845.6	26236
 846.1	26251
 846.6	26275
 847.0	26161
 847.5	26205
 848.0	26173
 848.4	26205
 848.9	26149
 849.4	26114
 849.8	26123
 850.3	26123
 850.8	26158
 851.3	26101
 851.7	26083
 852.2	26075
 852.7	26058
 853.1	26029
 853.6	25959
 854.1	25985
 854.5	25933
 855.0	25912
 855.5	25894
 855.9	25934
 856.4	25897
 856.9	25807
 857.3	25846
 857.8	25795
 858.3	25799
 858.7	25741
 859.2	25760
 859.7	25741
 860.1	25793
 860.6	25747
 861.1	25662
 861.5	25695
 862.0	25675
 862.4	25634
 862.9	25562
 863.4	25595
 863.8	25572
 864.3	25558
 864.8	25452
 865.2	25479
 865.7	25472
 866.1	25489
 866.6	25379
 867.1	25443
 867.5	25414
 868.0	25388
 868.5	25323
 868.9	25301
 869.4	25399
 869.8	25354
 870.3	25298
 870.8	25366
 871.2	25317
 871.7	25308
 872.1	25251
 872.6	25295
 873.0	25255
 873.5	25327
 874.0	25296
 874.4	25141
 874.9	25137
 875.3	25052
 875.8	24915
 876.2	24640
 876.7	24450
 877.2	24060
 877.6	23629
 878.1	23216
