#xlabel Wavelength (nm)
#ylabel Spectrometer Array Counts
#title Exposure time is 12000 ms
## lambda	counts
 349.8	20814
 350.3	21059
 350.8	21309
 351.3	21530
 351.9	21666
 352.4	21817
 352.9	21922
 353.4	21909
 354.0	21941
 354.5	22014
 355.0	22031
 355.5	22065
 356.0	22035
 356.6	22001
 357.1	22054
 357.6	22035
 358.1	22076
 358.7	22013
 359.2	22040
 359.7	22064
 360.2	22106
 360.8	22069
 361.3	22176
 361.8	22122
 362.3	22159
 362.9	22111
 363.4	22201
 363.9	22203
 364.4	22239
 364.9	22141
 365.5	22228
 366.0	22210
 366.5	22162
 367.0	22219
 367.6	22248
 368.1	22255
 368.6	22186
 369.1	22249
 369.7	22315
 370.2	22231
 370.7	22241
 371.2	22289
 371.8	22355
 372.3	22273
 372.8	22361
 373.3	22382
 373.9	22319
 374.4	22343
 374.9	22404
 375.5	22285
 376.0	22433
 376.5	22397
 377.0	22436
 377.6	22385
 378.1	22474
 378.6	22405
 379.1	22428
 379.7	22414
 380.2	22503
 380.7	22515
 381.2	22474
 381.8	22467
 382.3	22511
 382.8	22495
 383.4	22559
 383.9	22503
 384.4	22680
 384.9	22571
 385.5	22591
 386.0	22608
 386.5	22681
 387.1	22613
 387.6	22639
 388.1	22645
 388.6	22666
 389.2	22665
 389.7	22695
 390.2	22681
 390.8	22803
 391.3	22776
 391.8	22781
 392.3	22773
 392.9	22769
 393.4	22778
 393.9	22867
 394.5	22888
 395.0	22835
 395.5	22872
 396.0	22885
 396.6	22850
 397.1	22966
 397.6	22973
 398.2	22971
 398.7	22974
 399.2	23089
 399.8	22945
 400.3	23017
 400.8	23070
 401.3	23039
 401.9	23059
 402.4	23091
 402.9	23088
 403.5	23125
 404.0	23119
 404.5	23070
 405.1	23092
 405.6	23210
 406.1	23186
 406.7	23211
 407.2	23228
 407.7	23331
 408.2	23334
 408.8	23357
 409.3	23393
 409.8	23455
 410.4	23431
 410.9	23445
 411.4	23393
 412.0	23483
 412.5	23547
 413.0	23502
 413.6	23556
 414.1	23523
 414.6	23553
 415.2	23615
 415.7	23564
 416.2	23622
 416.8	23605
 417.3	23605
 417.8	23634
 418.4	23745
 418.9	23682
 419.4	23847
 420.0	23719
 420.5	23797
 421.0	23735
 421.5	23841
 422.1	23820
 422.6	23891
 423.1	23918
 423.7	23891
 424.2	23880
 424.7	23928
 425.3	23913
 425.8	23934
 426.3	23919
 426.9	23999
 427.4	23933
 427.9	24074
 428.5	24021
 429.0	24069
 429.6	24040
 430.1	24149
 430.6	24164
 431.2	24113
 431.7	24249
 432.2	24235
 432.8	24230
 433.3	24369
 433.8	24403
 434.4	24386
 434.9	24418
 435.4	24499
 436.0	24491
 436.5	24509
 437.0	24595
 437.6	24573
 438.1	24642
 438.6	24661
 439.2	24695
 439.7	24688
 440.2	24624
 440.8	24655
 441.3	24663
 441.8	24665
 442.4	24626
 442.9	24657
 443.5	24701
 444.0	24695
 444.5	24721
 445.1	24623
 445.6	24669
 446.1	24709
 446.7	24738
 447.2	24773
 447.7	24769
 448.3	24874
 448.8	24859
 449.3	24915
 449.9	24879
 450.4	25042
 450.9	25099
 451.5	25136
 452.0	25142
 452.6	25189
 453.1	25297
 453.6	25327
 454.2	25237
 454.7	25338
 455.2	25396
 455.8	25469
 456.3	25433
 456.8	25584
 457.4	25517
 457.9	25533
 458.5	25590
 459.0	25550
 459.5	25603
 460.1	25557
 460.6	25603
 461.1	25592
 461.7	25646
 462.2	25596
 462.7	25637
 463.3	25553
 463.8	25630
 464.4	25703
 464.9	25642
 465.4	25733
 466.0	25637
 466.5	25727
 467.0	25667
 467.6	25753
 468.1	25873
 468.7	25821
 469.2	25754
 469.7	25891
 470.3	25889
 470.8	25957
 471.3	25953
 471.9	25937
 472.4	26017
 473.0	26082
 473.5	26125
 474.0	26144
 474.6	26161
 475.1	26185
 475.6	26290
 476.2	26315
 476.7	26304
 477.3	26380
 477.8	26335
 478.3	26266
 478.9	26510
 479.4	26410
 479.9	26449
 480.5	26443
 481.0	26495
 481.6	26534
 482.1	26635
 482.6	26619
 483.2	26665
 483.7	26794
 484.2	26765
 484.8	26607
 485.3	26729
 485.9	26827
 486.4	26814
 486.9	26863
 487.5	26822
 488.0	26855
 488.6	26945
 489.1	26975
 489.6	27041
 490.2	27047
 490.7	27015
 491.2	26982
 491.8	27063
 492.3	27001
 492.9	27069
 493.4	27076
 493.9	27100
 494.5	27100
 495.0	27163
 495.6	27075
 496.1	27083
 496.6	27142
 497.2	27037
 497.7	27002
 498.2	27099
 498.8	27100
 499.3	27016
 499.9	27079
 500.4	27090
 500.9	27079
 501.5	27081
 502.0	27184
 502.6	27178
 503.1	27295
 503.6	27284
 504.2	27267
 504.7	27312
 505.2	27403
 505.8	27430
 506.3	27574
 506.9	27637
 507.4	27643
 507.9	27658
 508.5	27743
 509.0	27843
 509.6	27974
 510.1	27981
 510.6	28063
 511.2	28124
 511.7	28154
 512.2	28258
 512.8	28319
 513.3	28308
 513.9	28325
 514.4	28414
 514.9	28518
 515.5	28410
 516.0	28505
 516.6	28450
 517.1	28504
 517.6	28467
 518.2	28439
 518.7	28353
 519.3	28394
 519.8	28401
 520.3	28362
 520.9	28301
 521.4	28279
 521.9	28332
 522.5	28209
 523.0	28209
 523.6	28234
 524.1	28063
 524.6	28108
 525.2	28124
 525.7	28174
 526.3	28104
 526.8	28210
 527.3	28160
 527.9	28211
 528.4	28201
 528.9	28287
 529.5	28325
 530.0	28343
 530.6	28435
 531.1	28477
 531.6	28417
 532.2	28581
 532.7	28593
 533.3	28675
 533.8	28855
 534.3	28947
 534.9	28989
 535.4	28983
 536.0	29113
 536.5	29192
 537.0	29207
 537.6	29274
 538.1	29362
 538.6	29429
 539.2	29397
 539.7	29458
 540.3	29594
 540.8	29573
 541.3	29554
 541.9	29615
 542.4	29624
 543.0	29708
 543.5	29669
 544.0	29642
 544.6	29687
 545.1	29707
 545.6	29738
 546.2	29707
 546.7	29603
 547.3	29665
 547.8	29631
 548.3	29667
 548.9	29565
 549.4	29562
 550.0	29514
 550.5	29583
 551.0	29615
 551.6	29557
 552.1	29565
 552.6	29569
 553.2	29508
 553.7	29493
 554.3	29530
 554.8	29611
 555.3	29450
 555.9	29516
 556.4	29495
 556.9	29625
 557.5	29656
 558.0	29620
 558.6	29610
 559.1	29687
 559.6	29691
 560.2	29717
 560.7	29743
 561.3	29718
 561.8	29713
 562.3	29863
 562.9	29863
 563.4	29923
 563.9	29912
 564.5	29945
 565.0	29939
 565.6	29968
 566.1	29983
 566.6	29983
 567.2	29977
 567.7	30091
 568.2	30025
 568.8	30028
 569.3	30014
 569.9	30075
 570.4	30063
 570.9	30045
 571.5	30043
 572.0	30047
 572.5	30116
 573.1	30068
 573.6	30140
 574.1	30133
 574.7	30141
 575.2	30127
 575.8	30190
 576.3	30293
 576.8	30262
 577.4	30289
 577.9	30330
 578.4	30313
 579.0	30343
 579.5	30488
 580.1	30412
 580.6	30462
 581.1	30564
 581.7	30616
 582.2	30575
 582.7	30638
 583.3	30705
 583.8	30697
 584.3	30659
 584.9	30742
 585.4	30755
 586.0	30745
 586.5	30798
 587.0	30783
 587.6	30879
 588.1	30846
 588.6	30919
 589.2	30868
 589.7	30896
 590.2	30897
 590.8	30875
 591.3	30908
 591.9	30841
 592.4	30895
 592.9	30815
 593.5	30790
 594.0	30764
 594.5	30768
 595.1	30721
 595.6	30665
 596.1	30708
 596.7	30666
 597.2	30679
 597.7	30591
 598.3	30591
 598.8	30546
 599.3	30524
 599.9	30465
 600.4	30447
 601.0	30436
 601.5	30420
 602.0	30389
 602.6	30340
 603.1	30353
 603.6	30361
 604.2	30466
 604.7	30371
 605.2	30451
 605.8	30366
 606.3	30397
 606.8	30485
 607.4	30487
 607.9	30559
 608.4	30507
 609.0	30569
 609.5	30634
 610.0	30627
 610.6	30748
 611.1	30691
 611.6	30758
 612.2	30787
 612.7	30870
 613.2	30899
 613.8	30857
 614.3	30927
 614.8	31005
 615.4	30984
 615.9	31126
 616.4	31227
 617.0	31203
 617.5	31332
 618.0	31404
 618.6	31386
 619.1	31475
 619.6	31591
 620.2	31659
 620.7	31779
 621.2	31791
 621.8	31871
 622.3	31953
 622.8	31971
 623.4	32040
 623.9	32131
 624.4	32135
 625.0	32157
 625.5	32159
 626.0	32185
 626.6	32251
 627.1	32227
 627.6	32177
 628.2	32139
 628.7	32189
 629.2	32163
 629.8	32174
 630.3	32154
 630.8	32125
 631.4	32078
 631.9	32063
 632.4	31923
 632.9	31910
 633.5	31881
 634.0	31802
 634.5	31827
 635.1	31735
 635.6	31697
 636.1	31639
 636.7	31633
 637.2	31611
 637.7	31475
 638.3	31547
 638.8	31507
 639.3	31506
 639.8	31401
 640.4	31401
 640.9	31403
 641.4	31299
 642.0	31263
 642.5	31263
 643.0	31227
 643.6	31313
 644.1	31263
 644.6	31277
 645.1	31293
 645.7	31287
 646.2	31234
 646.7	31263
 647.3	31292
 647.8	31313
 648.3	31291
 648.9	31341
 649.4	31261
 649.9	31341
 650.4	31374
 651.0	31449
 651.5	31473
 652.0	31553
 652.6	31519
 653.1	31630
 653.6	31557
 654.1	31646
 654.7	31623
 655.2	31741
 655.7	31799
 656.3	31831
 656.8	31805
 657.3	31871
 657.8	31853
 658.4	31887
 658.9	31919
 659.4	32009
 659.9	32029
 660.5	32005
 661.0	32066
 661.5	32124
 662.1	32093
 662.6	32123
 663.1	32079
 663.6	32180
 664.2	32126
 664.7	32109
 665.2	32039
 665.7	32167
 666.3	32120
 666.8	32112
 667.3	32117
 667.8	32075
 668.4	32095
 668.9	32100
 669.4	32068
 669.9	32083
 670.5	32001
 671.0	32012
 671.5	31958
 672.0	31997
 672.6	31984
 673.1	32019
 673.6	31905
 674.1	31930
 674.7	31918
 675.2	31941
 675.7	31793
 676.2	31774
 676.8	31843
 677.3	31834
 677.8	31747
 678.3	31843
 678.9	31763
 679.4	31683
 679.9	31749
 680.4	31731
 681.0	31687
 681.5	31709
 682.0	31663
 682.5	31698
 683.1	31589
 683.6	31621
 684.1	31551
 684.6	31662
 685.1	31597
 685.7	31607
 686.2	31586
 686.7	31538
 687.2	31528
 687.8	31599
 688.3	31538
 688.8	31551
 689.3	31488
 689.8	31528
 690.4	31513
 690.9	31526
 691.4	31554
 691.9	31553
 692.4	31527
 693.0	31601
 693.5	31568
 694.0	31561
 694.5	31554
 695.1	31527
 695.6	31485
 696.1	31563
 696.6	31554
 697.1	31573
 697.7	31601
 698.2	31520
 698.7	31555
 699.2	31515
 699.7	31527
 700.3	31481
 700.8	31447
 701.3	31548
 701.8	31507
 702.3	31448
 702.8	31442
 703.4	31427
 703.9	31398
 704.4	31372
 704.9	31335
 705.4	31321
 706.0	31383
 706.5	31360
 707.0	31267
 707.5	31228
 708.0	31241
 708.5	31182
 709.1	31229
 709.6	31173
 710.1	31112
 710.6	31071
 711.1	31031
 711.7	31038
 712.2	31000
 712.7	30995
 713.2	30934
 713.7	30914
 714.2	30830
 714.8	30905
 715.3	30811
 715.8	30785
 716.3	30755
 716.8	30654
 717.3	30623
 717.8	30707
 718.4	30706
 718.9	30623
 719.4	30717
 719.9	30601
 720.4	30644
 720.9	30666
 721.4	30657
 722.0	30692
 722.5	30686
 723.0	30688
 723.5	30731
 724.0	30699
 724.5	30693
 725.0	30748
 725.6	30695
 726.1	30767
 726.6	30893
 727.1	30842
 727.6	30907
 728.1	30943
 728.6	30902
 729.1	30915
 729.7	30909
 730.2	30947
 730.7	30981
 731.2	31036
 731.7	31033
 732.2	31058
 732.7	31033
 733.2	31087
 733.8	31066
 734.3	31098
 734.8	31091
 735.3	31123
 735.8	31137
 736.3	31125
 736.8	31180
 737.3	31249
 737.8	31195
 738.4	31199
 738.9	31154
 739.4	31266
 739.9	31257
 740.4	31282
 740.9	31251
 741.4	31259
 741.9	31259
 742.4	31277
 742.9	31263
 743.4	31345
 744.0	31255
 744.5	31247
 745.0	31241
 745.5	31330
 746.0	31293
 746.5	31300
 747.0	31225
 747.5	31202
 748.0	31173
 748.5	31199
 749.0	31185
 749.5	31275
 750.0	31094
 750.5	31139
 751.1	31119
 751.6	31115
 752.1	31075
 752.6	31034
 753.1	31061
 753.6	30970
 754.1	30934
 754.6	30961
 755.1	30893
 755.6	30896
 756.1	30783
 756.6	30857
 757.1	30817
 757.6	30778
 758.1	30723
 758.6	30700
 759.1	30604
 759.6	30628
 760.1	30554
 760.7	30477
 761.2	30546
 761.7	30475
 762.2	30435
 762.7	30447
 763.2	30307
 763.7	30370
 764.2	30265
 764.7	30241
 765.2	30250
 765.7	30180
 766.2	30120
 766.7	30143
 767.2	30059
 767.7	30037
 768.2	30001
 768.7	29937
 769.2	29895
 769.7	29922
 770.2	29869
 770.7	29847
 771.2	29791
 771.7	29767
 772.2	29759
 772.7	29793
 773.2	29749
 773.7	29691
 774.2	29621
 774.7	29650
 775.2	29611
 775.7	29588
 776.2	29560
 776.7	29581
 777.2	29497
 777.7	29566
 778.2	29526
 778.7	29566
 779.2	29567
 779.7	29583
 780.2	29399
 780.7	29471
 781.2	29458
 781.7	29517
 782.2	29432
 782.6	29502
 783.1	29494
 783.6	29459
 784.1	29405
 784.6	29397
 785.1	29400
 785.6	29391
 786.1	29413
 786.6	29427
 787.1	29369
 787.6	29351
 788.1	29334
 788.6	29317
 789.1	29286
 789.6	29305
 790.1	29325
 790.6	29310
 791.1	29198
 791.6	29187
 792.0	29181
 792.5	29206
 793.0	29167
 793.5	29149
 794.0	29075
 794.5	29143
 795.0	29073
 795.5	29054
 796.0	29037
 796.5	28950
 797.0	28947
 797.5	28986
 798.0	28801
 798.4	28804
 798.9	28763
 799.4	28750
 799.9	28731
 800.4	28559
 800.9	28643
 801.4	28663
 801.9	28587
 802.4	28476
 802.9	28509
 803.3	28478
 803.8	28403
 804.3	28321
 804.8	28347
 805.3	28277
 805.8	28214
 806.3	28177
 806.8	28127
 807.2	28089
 807.7	28036
 808.2	28019
 808.7	27910
 809.2	27891
 809.7	27780
 810.2	27830
 810.7	27727
 811.1	27717
 811.6	27687
 812.1	27606
 812.6	27529
 813.1	27552
 813.6	27539
 814.1	27501
 814.5	27431
 815.0	27440
 815.5	27358
 816.0	27289
 816.5	27327
 817.0	27252
 817.4	27217
 817.9	27229
 818.4	27117
 818.9	27196
 819.4	27138
 819.9	27080
 820.3	27035
 820.8	27019
 821.3	27013
 821.8	26986
 822.3	26911
 822.7	26884
 823.2	26931
 823.7	26863
 824.2	26853
 824.7	26805
 825.2	26818
 825.6	26768
 826.1	26745
 826.6	26793
 827.1	26760
 827.6	26746
 828.0	26667
 828.5	26622
 829.0	26658
 829.5	26585
 829.9	26576
 830.4	26629
 830.9	26591
 831.4	26619
 831.9	26551
 832.3	26619
 832.8	26547
 833.3	26539
 833.8	26615
 834.2	26603
 834.7	26425
 835.2	26513
 835.7	26510
 836.1	26500
 836.6	26470
 837.1	26463
 837.6	26463
 838.0	26488
 838.5	26502
 839.0	26499
 839.5	26487
 839.9	26391
 840.4	26395
 840.9	26350
 841.4	26379
 841.8	26403
 842.3	26405
 842.8	26417
 843.3	26399
 843.7	26285
 844.2	26271
 844.7	26346
 845.1	26307
 845.6	26219
 846.1	26230
 846.6	26259
 847.0	26143
 847.5	26191
 848.0	26159
 848.4	26184
 848.9	26129
 849.4	26101
 849.8	26108
 850.3	26107
 850.8	26143
 851.3	26085
 851.7	26065
 852.2	26061
 852.7	26033
 853.1	26014
 853.6	25941
 854.1	25967
 854.5	25919
 855.0	25899
 855.5	25875
 855.9	25921
 856.4	25880
 856.9	25787
 857.3	25833
 857.8	25775
 858.3	25789
 858.7	25724
 859.2	25749
 859.7	25727
 860.1	25777
 860.6	25733
 861.1	25645
 861.5	25678
 862.0	25656
 862.4	25613
 862.9	25550
 863.4	25573
 863.8	25562
 864.3	25542
 864.8	25439
 865.2	25465
 865.7	25459
 866.1	25473
 866.6	25365
 867.1	25434
 867.5	25406
 868.0	25375
 868.5	25314
 868.9	25292
 869.4	25385
 869.8	25333
 870.3	25279
 870.8	25339
 871.2	25285
 871.7	25274
 872.1	25205
 872.6	25243
 873.0	25195
 873.5	25257
 874.0	25215
 874.4	25051
 874.9	25051
 875.3	24967
 875.8	24830
 876.2	24570
 876.7	24393
 877.2	24021
 877.6	23608
 878.1	23227
