#xlabel Wavelength (nm)
#ylabel Spectrometer Array Counts
#title Exposure time is 12000 ms
## lambda	counts
 349.8	20617
 350.3	20894
 350.8	21167
 351.3	21403
 351.9	21551
 352.4	21694
 352.9	21791
 353.4	21766
 354.0	21779
 354.5	21838
 355.0	21839
 355.5	21853
 356.0	21806
 356.6	21757
 357.1	21803
 357.6	21773
 358.1	21804
 358.7	21731
 359.2	21748
 359.7	21763
 360.2	21804
 360.8	21761
 361.3	21862
 361.8	21795
 362.3	21829
 362.9	21781
 363.4	21862
 363.9	21857
 364.4	21888
 364.9	21784
 365.5	21863
 366.0	21839
 366.5	21789
 367.0	21838
 367.6	21864
 368.1	21861
 368.6	21781
 369.1	21840
 369.7	21900
 370.2	21801
 370.7	21804
 371.2	21845
 371.8	21904
 372.3	21809
 372.8	21891
 373.3	21905
 373.9	21839
 374.4	21850
 374.9	21899
 375.5	21774
 376.0	21909
 376.5	21857
 377.0	21885
 377.6	21825
 378.1	21902
 378.6	21819
 379.1	21821
 379.7	21797
 380.2	21879
 380.7	21874
 381.2	21817
 381.8	21805
 382.3	21838
 382.8	21809
 383.4	21870
 383.9	21805
 384.4	21974
 384.9	21865
 385.5	21877
 386.0	21879
 386.5	21959
 387.1	21882
 387.6	21903
 388.1	21892
 388.6	21910
 389.2	21889
 389.7	21911
 390.2	21886
 390.8	21986
 391.3	21943
 391.8	21933
 392.3	21902
 392.9	21883
 393.4	21878
 393.9	21951
 394.5	21943
 395.0	21881
 395.5	21905
 396.0	21897
 396.6	21859
 397.1	21959
 397.6	21955
 398.2	21953
 398.7	21943
 399.2	22057
 399.8	21914
 400.3	21985
 400.8	22032
 401.3	21992
 401.9	22007
 402.4	22033
 402.9	22011
 403.5	22049
 404.0	22020
 404.5	21959
 405.1	21963
 405.6	22063
 406.1	22029
 406.7	22031
 407.2	22033
 407.7	22115
 408.2	22101
 408.8	22104
 409.3	22125
 409.8	22168
 410.4	22129
 410.9	22139
 411.4	22069
 412.0	22145
 412.5	22196
 413.0	22140
 413.6	22186
 414.1	22145
 414.6	22169
 415.2	22221
 415.7	22159
 416.2	22209
 416.8	22188
 417.3	22174
 417.8	22194
 418.4	22297
 418.9	22216
 419.4	22375
 420.0	22236
 420.5	22308
 421.0	22235
 421.5	22330
 422.1	22301
 422.6	22370
 423.1	22387
 423.7	22345
 424.2	22328
 424.7	22368
 425.3	22344
 425.8	22362
 426.3	22343
 426.9	22410
 427.4	22332
 427.9	22467
 428.5	22395
 429.0	22431
 429.6	22381
 430.1	22467
 430.6	22455
 431.2	22376
 431.7	22487
 432.2	22443
 432.8	22411
 433.3	22527
 433.8	22520
 434.4	22478
 434.9	22487
 435.4	22543
 436.0	22503
 436.5	22505
 437.0	22578
 437.6	22533
 438.1	22596
 438.6	22601
 439.2	22622
 439.7	22613
 440.2	22547
 440.8	22579
 441.3	22589
 441.8	22581
 442.4	22547
 442.9	22578
 443.5	22625
 444.0	22607
 444.5	22637
 445.1	22530
 445.6	22569
 446.1	22593
 446.7	22615
 447.2	22627
 447.7	22605
 448.3	22682
 448.8	22633
 449.3	22668
 449.9	22595
 450.4	22708
 450.9	22738
 451.5	22735
 452.0	22698
 452.6	22713
 453.1	22772
 453.6	22777
 454.2	22640
 454.7	22716
 455.2	22735
 455.8	22787
 456.3	22721
 456.8	22866
 457.4	22776
 457.9	22780
 458.5	22835
 459.0	22783
 459.5	22829
 460.1	22773
 460.6	22819
 461.1	22809
 461.7	22859
 462.2	22815
 462.7	22855
 463.3	22771
 463.8	22843
 464.4	22919
 464.9	22849
 465.4	22925
 466.0	22811
 466.5	22895
 467.0	22818
 467.6	22887
 468.1	22984
 468.7	22903
 469.2	22819
 469.7	22933
 470.3	22899
 470.8	22942
 471.3	22911
 471.9	22863
 472.4	22922
 473.0	22961
 473.5	22982
 474.0	22971
 474.6	22972
 475.1	22969
 475.6	23046
 476.2	23055
 476.7	23023
 477.3	23087
 477.8	23019
 478.3	22937
 478.9	23168
 479.4	23037
 479.9	23049
 480.5	23027
 481.0	23059
 481.6	23078
 482.1	23143
 482.6	23111
 483.2	23118
 483.7	23248
 484.2	23176
 484.8	22997
 485.3	23099
 485.9	23182
 486.4	23137
 486.9	23162
 487.5	23111
 488.0	23116
 488.6	23189
 489.1	23194
 489.6	23257
 490.2	23245
 490.7	23199
 491.2	23164
 491.8	23229
 492.3	23171
 492.9	23225
 493.4	23228
 493.9	23254
 494.5	23251
 495.0	23330
 495.6	23238
 496.1	23258
 496.6	23319
 497.2	23227
 497.7	23187
 498.2	23293
 498.8	23307
 499.3	23212
 499.9	23274
 500.4	23276
 500.9	23251
 501.5	23241
 502.0	23321
 502.6	23292
 503.1	23391
 503.6	23341
 504.2	23291
 504.7	23302
 505.2	23368
 505.8	23346
 506.3	23441
 506.9	23451
 507.4	23402
 507.9	23374
 508.5	23409
 509.0	23454
 509.6	23529
 510.1	23501
 510.6	23531
 511.2	23553
 511.7	23541
 512.2	23609
 512.8	23635
 513.3	23586
 513.9	23569
 514.4	23642
 514.9	23728
 515.5	23611
 516.0	23697
 516.6	23660
 517.1	23711
 517.6	23699
 518.2	23674
 518.7	23600
 519.3	23667
 519.8	23709
 520.3	23698
 520.9	23651
 521.4	23658
 521.9	23725
 522.5	23635
 523.0	23663
 523.6	23702
 524.1	23540
 524.6	23595
 525.2	23619
 525.7	23661
 526.3	23577
 526.8	23670
 527.3	23618
 527.9	23644
 528.4	23619
 528.9	23682
 529.5	23699
 530.0	23684
 530.6	23747
 531.1	23741
 531.6	23645
 532.2	23771
 532.7	23729
 533.3	23775
 533.8	23912
 534.3	23953
 534.9	23941
 535.4	23874
 536.0	23962
 536.5	24000
 537.0	23959
 537.6	23989
 538.1	24046
 538.6	24071
 539.2	24003
 539.7	24019
 540.3	24141
 540.8	24091
 541.3	24043
 541.9	24083
 542.4	24081
 543.0	24159
 543.5	24120
 544.0	24083
 544.6	24139
 545.1	24156
 545.6	24190
 546.2	24173
 546.7	24068
 547.3	24143
 547.8	24120
 548.3	24172
 548.9	24069
 549.4	24071
 550.0	24041
 550.5	24116
 551.0	24163
 551.6	24107
 552.1	24129
 552.6	24129
 553.2	24092
 553.7	24069
 554.3	24116
 554.8	24190
 555.3	24023
 555.9	24090
 556.4	24058
 556.9	24166
 557.5	24203
 558.0	24155
 558.6	24124
 559.1	24195
 559.6	24183
 560.2	24187
 560.7	24191
 561.3	24149
 561.8	24124
 562.3	24255
 562.9	24240
 563.4	24275
 563.9	24263
 564.5	24275
 565.0	24263
 565.6	24285
 566.1	24287
 566.6	24283
 567.2	24273
 567.7	24381
 568.2	24286
 568.8	24301
 569.3	24270
 569.9	24347
 570.4	24328
 570.9	24298
 571.5	24297
 572.0	24291
 572.5	24353
 573.1	24295
 573.6	24351
 574.1	24340
 574.7	24334
 575.2	24304
 575.8	24347
 576.3	24429
 576.8	24394
 577.4	24403
 577.9	24419
 578.4	24373
 579.0	24385
 579.5	24507
 580.1	24411
 580.6	24418
 581.1	24509
 581.7	24535
 582.2	24461
 582.7	24508
 583.3	24561
 583.8	24525
 584.3	24473
 584.9	24533
 585.4	24535
 586.0	24507
 586.5	24539
 587.0	24503
 587.6	24594
 588.1	24535
 588.6	24617
 589.2	24548
 589.7	24572
 590.2	24567
 590.8	24559
 591.3	24589
 591.9	24523
 592.4	24602
 592.9	24530
 593.5	24516
 594.0	24517
 594.5	24538
 595.1	24515
 595.6	24485
 596.1	24549
 596.7	24523
 597.2	24564
 597.7	24486
 598.3	24505
 598.8	24475
 599.3	24487
 599.9	24455
 600.4	24451
 601.0	24464
 601.5	24449
 602.0	24435
 602.6	24382
 603.1	24397
 603.6	24404
 604.2	24515
 604.7	24410
 605.2	24489
 605.8	24396
 606.3	24411
 606.8	24496
 607.4	24475
 607.9	24518
 608.4	24459
 609.0	24498
 609.5	24547
 610.0	24519
 610.6	24623
 611.1	24530
 611.6	24564
 612.2	24561
 612.7	24627
 613.2	24627
 613.8	24542
 614.3	24581
 614.8	24635
 615.4	24557
 615.9	24662
 616.4	24727
 617.0	24669
 617.5	24777
 618.0	24787
 618.6	24707
 619.1	24745
 619.6	24828
 620.2	24827
 620.7	24897
 621.2	24861
 621.8	24897
 622.3	24933
 622.8	24890
 623.4	24929
 623.9	24993
 624.4	24965
 625.0	24973
 625.5	24970
 626.0	24981
 626.6	25047
 627.1	25034
 627.6	24975
 628.2	24948
 628.7	24986
 629.2	24971
 629.8	25002
 630.3	25003
 630.8	24988
 631.4	24970
 631.9	24997
 632.4	24881
 632.9	24909
 633.5	24901
 634.0	24858
 634.5	24944
 635.1	24873
 635.6	24854
 636.1	24831
 636.7	24890
 637.2	24890
 637.7	24779
 638.3	24890
 638.8	24882
 639.3	24903
 639.8	24833
 640.4	24850
 640.9	24876
 641.4	24778
 642.0	24765
 642.5	24787
 643.0	24758
 643.6	24856
 644.1	24814
 644.6	24823
 645.1	24867
 645.7	24838
 646.2	24795
 646.7	24819
 647.3	24856
 647.8	24860
 648.3	24835
 648.9	24877
 649.4	24774
 649.9	24853
 650.4	24877
 651.0	24912
 651.5	24932
 652.0	24994
 652.6	24930
 653.1	25020
 653.6	24919
 654.1	25001
 654.7	24955
 655.2	25045
 655.7	25085
 656.3	25100
 656.8	25044
 657.3	25105
 657.8	25041
 658.4	25043
 658.9	25058
 659.4	25139
 659.9	25141
 660.5	25103
 661.0	25161
 661.5	25211
 662.1	25170
 662.6	25181
 663.1	25141
 663.6	25235
 664.2	25182
 664.7	25151
 665.2	25069
 665.7	25217
 666.3	25172
 666.8	25186
 667.3	25186
 667.8	25147
 668.4	25178
 668.9	25187
 669.4	25174
 669.9	25209
 670.5	25142
 671.0	25158
 671.5	25107
 672.0	25171
 672.6	25173
 673.1	25213
 673.6	25113
 674.1	25153
 674.7	25150
 675.2	25195
 675.7	25049
 676.2	25051
 676.8	25127
 677.3	25144
 677.8	25059
 678.3	25190
 678.9	25113
 679.4	25053
 679.9	25129
 680.4	25131
 681.0	25090
 681.5	25135
 682.0	25106
 682.5	25145
 683.1	25043
 683.6	25095
 684.1	25029
 684.6	25151
 685.1	25086
 685.7	25107
 686.2	25091
 686.7	25049
 687.2	25032
 687.8	25118
 688.3	25059
 688.8	25083
 689.3	25018
 689.8	25053
 690.4	25054
 690.9	25062
 691.4	25067
 691.9	25098
 692.4	25048
 693.0	25130
 693.5	25101
 694.0	25089
 694.5	25078
 695.1	25057
 695.6	25011
 696.1	25090
 696.6	25075
 697.1	25105
 697.7	25131
 698.2	25047
 698.7	25082
 699.2	25050
 699.7	25066
 700.3	25040
 700.8	25013
 701.3	25131
 701.8	25087
 702.3	25039
 702.8	25043
 703.4	25016
 703.9	25025
 704.4	25021
 704.9	24994
 705.4	24991
 706.0	25091
 706.5	25081
 707.0	24991
 707.5	24981
 708.0	25017
 708.5	24958
 709.1	25036
 709.6	24994
 710.1	24958
 710.6	24934
 711.1	24927
 711.7	24949
 712.2	24945
 712.7	24963
 713.2	24929
 713.7	24937
 714.2	24867
 714.8	24968
 715.3	24903
 715.8	24898
 716.3	24899
 716.8	24799
 717.3	24782
 717.8	24896
 718.4	24902
 718.9	24833
 719.4	24922
 719.9	24815
 720.4	24861
 720.9	24874
 721.4	24865
 722.0	24903
 722.5	24879
 723.0	24867
 723.5	24886
 724.0	24850
 724.5	24835
 725.0	24870
 725.6	24793
 726.1	24859
 726.6	24989
 727.1	24919
 727.6	24966
 728.1	24995
 728.6	24939
 729.1	24934
 729.7	24919
 730.2	24958
 730.7	24991
 731.2	25026
 731.7	25011
 732.2	25028
 732.7	25002
 733.2	25055
 733.8	25029
 734.3	25042
 734.8	25021
 735.3	25045
 735.8	25031
 736.3	24994
 736.8	25037
 737.3	25095
 737.8	25033
 738.4	25024
 738.9	24975
 739.4	25078
 739.9	25060
 740.4	25069
 740.9	25052
 741.4	25054
 741.9	25051
 742.4	25072
 742.9	25051
 743.4	25160
 744.0	25065
 744.5	25058
 745.0	25078
 745.5	25173
 746.0	25143
 746.5	25156
 747.0	25082
 747.5	25075
 748.0	25051
 748.5	25071
 749.0	25077
 749.5	25192
 750.0	25009
 750.5	25076
 751.1	25080
 751.6	25095
 752.1	25084
 752.6	25037
 753.1	25084
 753.6	25013
 754.1	24983
 754.6	25037
 755.1	24983
 755.6	25005
 756.1	24916
 756.6	25025
 757.1	24990
 757.6	24977
 758.1	24947
 758.6	24959
 759.1	24885
 759.6	24935
 760.1	24877
 760.7	24835
 761.2	24923
 761.7	24870
 762.2	24847
 762.7	24899
 763.2	24754
 763.7	24857
 764.2	24776
 764.7	24784
 765.2	24818
 765.7	24791
 766.2	24750
 766.7	24803
 767.2	24745
 767.7	24766
 768.2	24741
 768.7	24705
 769.2	24696
 769.7	24751
 770.2	24724
 770.7	24714
 771.2	24693
 771.7	24675
 772.2	24687
 772.7	24747
 773.2	24719
 773.7	24669
 774.2	24611
 774.7	24669
 775.2	24656
 775.7	24641
 776.2	24631
 776.7	24666
 777.2	24583
 777.7	24676
 778.2	24654
 778.7	24700
 779.2	24714
 779.7	24752
 780.2	24565
 780.7	24650
 781.2	24656
 781.7	24729
 782.2	24641
 782.6	24725
 783.1	24741
 783.6	24697
 784.1	24663
 784.6	24648
 785.1	24661
 785.6	24657
 786.1	24695
 786.6	24717
 787.1	24655
 787.6	24652
 788.1	24649
 788.6	24635
 789.1	24617
 789.6	24661
 790.1	24686
 790.6	24687
 791.1	24577
 791.6	24590
 792.0	24606
 792.5	24649
 793.0	24631
 793.5	24627
 794.0	24564
 794.5	24661
 795.0	24623
 795.5	24603
 796.0	24615
 796.5	24550
 797.0	24583
 797.5	24635
 798.0	24471
 798.4	24511
 798.9	24499
 799.4	24513
 799.9	24523
 800.4	24367
 800.9	24482
 801.4	24548
 801.9	24505
 802.4	24420
 802.9	24492
 803.3	24491
 803.8	24450
 804.3	24387
 804.8	24455
 805.3	24407
 805.8	24383
 806.3	24382
 806.8	24363
 807.2	24354
 807.7	24329
 808.2	24353
 808.7	24262
 809.2	24273
 809.7	24197
 810.2	24270
 810.7	24200
 811.1	24218
 811.6	24223
 812.1	24166
 812.6	24118
 813.1	24172
 813.6	24187
 814.1	24163
 814.5	24115
 815.0	24143
 815.5	24091
 816.0	24052
 816.5	24116
 817.0	24058
 817.4	24045
 817.9	24077
 818.4	24003
 818.9	24099
 819.4	24047
 819.9	24018
 820.3	23985
 820.8	23984
 821.3	23991
 821.8	23988
 822.3	23940
 822.7	23914
 823.2	23985
 823.7	23929
 824.2	23936
 824.7	23905
 825.2	23934
 825.6	23904
 826.1	23895
 826.6	23954
 827.1	23937
 827.6	23929
 828.0	23861
 828.5	23829
 829.0	23879
 829.5	23809
 829.9	23817
 830.4	23887
 830.9	23871
 831.4	23892
 831.9	23841
 832.3	23929
 832.8	23870
 833.3	23873
 833.8	23956
 834.2	23947
 834.7	23780
 835.2	23877
 835.7	23879
 836.1	23879
 836.6	23857
 837.1	23860
 837.6	23866
 838.0	23908
 838.5	23933
 839.0	23931
 839.5	23921
 839.9	23836
 840.4	23849
 840.9	23807
 841.4	23852
 841.8	23885
 842.3	23889
 842.8	23913
 843.3	23912
 843.7	23804
 844.2	23793
 844.7	23884
 845.1	23856
 845.6	23763
 846.1	23791
 846.6	23826
 847.0	23711
 847.5	23775
 848.0	23750
 848.4	23792
 848.9	23749
 849.4	23736
 849.8	23753
 850.3	23759
 850.8	23806
 851.3	23761
 851.7	23755
 852.2	23762
 852.7	23748
 853.1	23730
 853.6	23671
 854.1	23718
 854.5	23668
 855.0	23667
 855.5	23651
 855.9	23717
 856.4	23695
 856.9	23605
 857.3	23673
 857.8	23632
 858.3	23671
 858.7	23622
 859.2	23651
 859.7	23633
 860.1	23689
 860.6	23667
 861.1	23591
 861.5	23638
 862.0	23645
 862.4	23610
 862.9	23559
 863.4	23603
 863.8	23608
 864.3	23601
 864.8	23506
 865.2	23547
 865.7	23562
 866.1	23588
 866.6	23493
 867.1	23571
 867.5	23548
 868.0	23533
 868.5	23470
 868.9	23468
 869.4	23580
 869.8	23537
 870.3	23481
 870.8	23559
 871.2	23506
 871.7	23505
 872.1	23457
 872.6	23517
 873.0	23491
 873.5	23593
 874.0	23578
 874.4	23446
 874.9	23479
 875.3	23415
 875.8	23300
 876.2	23047
 876.7	22867
 877.2	22487
 877.6	22049
 878.1	21655
