#xlabel Wavelength (nm)
#ylabel Spectrometer Array Counts
#title Exposure time is 12000 ms
## lambda	counts
 349.8	20696
 350.3	20987
 350.8	21256
 351.3	21485
 351.9	21610
 352.4	21726
 352.9	21796
 353.4	21749
 354.0	21738
 354.5	21793
 355.0	21786
 355.5	21809
 356.0	21765
 356.6	21726
 357.1	21775
 357.6	21751
 358.1	21794
 358.7	21725
 359.2	21749
 359.7	21764
 360.2	21810
 360.8	21764
 361.3	21870
 361.8	21805
 362.3	21835
 362.9	21787
 363.4	21869
 363.9	21866
 364.4	21892
 364.9	21792
 365.5	21873
 366.0	21847
 366.5	21797
 367.0	21842
 367.6	21861
 368.1	21869
 368.6	21790
 369.1	21845
 369.7	21904
 370.2	21802
 370.7	21807
 371.2	21848
 371.8	21907
 372.3	21814
 372.8	21899
 373.3	21910
 373.9	21836
 374.4	21854
 374.9	21901
 375.5	21775
 376.0	21913
 376.5	21855
 377.0	21887
 377.6	21826
 378.1	21900
 378.6	21824
 379.1	21827
 379.7	21804
 380.2	21880
 380.7	21876
 381.2	21819
 381.8	21805
 382.3	21846
 382.8	21818
 383.4	21872
 383.9	21814
 384.4	21981
 384.9	21870
 385.5	21881
 386.0	21889
 386.5	21961
 387.1	21883
 387.6	21901
 388.1	21897
 388.6	21914
 389.2	21892
 389.7	21915
 390.2	21888
 390.8	21991
 391.3	21944
 391.8	21929
 392.3	21907
 392.9	21888
 393.4	21877
 393.9	21951
 394.5	21952
 395.0	21883
 395.5	21903
 396.0	21901
 396.6	21860
 397.1	21959
 397.6	21961
 398.2	21955
 398.7	21957
 399.2	22064
 399.8	21917
 400.3	21983
 400.8	22032
 401.3	21992
 401.9	22005
 402.4	22028
 402.9	22011
 403.5	22040
 404.0	22019
 404.5	21958
 405.1	21969
 405.6	22064
 406.1	22031
 406.7	22031
 407.2	22034
 407.7	22118
 408.2	22103
 408.8	22107
 409.3	22135
 409.8	22173
 410.4	22135
 410.9	22133
 411.4	22071
 412.0	22149
 412.5	22199
 413.0	22141
 413.6	22187
 414.1	22143
 414.6	22166
 415.2	22225
 415.7	22161
 416.2	22209
 416.8	22187
 417.3	22175
 417.8	22189
 418.4	22295
 418.9	22219
 419.4	22375
 420.0	22238
 420.5	22314
 421.0	22241
 421.5	22338
 422.1	22302
 422.6	22367
 423.1	22389
 423.7	22349
 424.2	22329
 424.7	22367
 425.3	22347
 425.8	22365
 426.3	22340
 426.9	22410
 427.4	22333
 427.9	22467
 428.5	22393
 429.0	22424
 429.6	22383
 430.1	22469
 430.6	22453
 431.2	22373
 431.7	22485
 432.2	22437
 432.8	22411
 433.3	22522
 433.8	22524
 434.4	22481
 434.9	22491
 435.4	22539
 436.0	22505
 436.5	22501
 437.0	22573
 437.6	22535
 438.1	22595
 438.6	22601
 439.2	22627
 439.7	22614
 440.2	22550
 440.8	22577
 441.3	22586
 441.8	22580
 442.4	22539
 442.9	22576
 443.5	22623
 444.0	22607
 444.5	22635
 445.1	22531
 445.6	22570
 446.1	22593
 446.7	22612
 447.2	22628
 447.7	22606
 448.3	22675
 448.8	22631
 449.3	22665
 449.9	22594
 450.4	22708
 450.9	22739
 451.5	22733
 452.0	22701
 452.6	22711
 453.1	22772
 453.6	22771
 454.2	22641
 454.7	22715
 455.2	22739
 455.8	22787
 456.3	22719
 456.8	22860
 457.4	22767
 457.9	22779
 458.5	22825
 459.0	22779
 459.5	22830
 460.1	22775
 460.6	22820
 461.1	22809
 461.7	22855
 462.2	22815
 462.7	22854
 463.3	22765
 463.8	22842
 464.4	22917
 464.9	22843
 465.4	22926
 466.0	22813
 466.5	22891
 467.0	22813
 467.6	22882
 468.1	22977
 468.7	22899
 469.2	22812
 469.7	22924
 470.3	22896
 470.8	22938
 471.3	22911
 471.9	22858
 472.4	22917
 473.0	22962
 473.5	22981
 474.0	22968
 474.6	22963
 475.1	22964
 475.6	23047
 476.2	23050
 476.7	23022
 477.3	23082
 477.8	23013
 478.3	22930
 478.9	23167
 479.4	23033
 479.9	23045
 480.5	23021
 481.0	23050
 481.6	23068
 482.1	23141
 482.6	23109
 483.2	23114
 483.7	23238
 484.2	23170
 484.8	22987
 485.3	23094
 485.9	23173
 486.4	23135
 486.9	23157
 487.5	23104
 488.0	23113
 488.6	23180
 489.1	23190
 489.6	23244
 490.2	23240
 490.7	23191
 491.2	23154
 491.8	23225
 492.3	23165
 492.9	23219
 493.4	23227
 493.9	23249
 494.5	23249
 495.0	23320
 495.6	23233
 496.1	23250
 496.6	23315
 497.2	23217
 497.7	23182
 498.2	23283
 498.8	23303
 499.3	23205
 499.9	23271
 500.4	23266
 500.9	23251
 501.5	23232
 502.0	23314
 502.6	23280
 503.1	23385
 503.6	23339
 504.2	23289
 504.7	23294
 505.2	23359
 505.8	23340
 506.3	23437
 506.9	23442
 507.4	23398
 507.9	23362
 508.5	23408
 509.0	23449
 509.6	23524
 510.1	23491
 510.6	23527
 511.2	23551
 511.7	23525
 512.2	23604
 512.8	23622
 513.3	23582
 513.9	23567
 514.4	23635
 514.9	23721
 515.5	23604
 516.0	23690
 516.6	23646
 517.1	23707
 517.6	23691
 518.2	23663
 518.7	23596
 519.3	23659
 519.8	23699
 520.3	23689
 520.9	23639
 521.4	23649
 521.9	23719
 522.5	23623
 523.0	23651
 523.6	23694
 524.1	23531
 524.6	23587
 525.2	23613
 525.7	23653
 526.3	23567
 526.8	23665
 527.3	23605
 527.9	23632
 528.4	23612
 528.9	23670
 529.5	23693
 530.0	23677
 530.6	23733
 531.1	23735
 531.6	23633
 532.2	23765
 532.7	23726
 533.3	23767
 533.8	23898
 534.3	23942
 534.9	23927
 535.4	23867
 536.0	23956
 536.5	23997
 537.0	23951
 537.6	23984
 538.1	24035
 538.6	24059
 539.2	23988
 539.7	24014
 540.3	24128
 540.8	24079
 541.3	24037
 541.9	24072
 542.4	24075
 543.0	24149
 543.5	24105
 544.0	24077
 544.6	24130
 545.1	24145
 545.6	24177
 546.2	24163
 546.7	24058
 547.3	24127
 547.8	24104
 548.3	24162
 548.9	24057
 549.4	24062
 550.0	24029
 550.5	24101
 551.0	24150
 551.6	24095
 552.1	24119
 552.6	24117
 553.2	24082
 553.7	24059
 554.3	24105
 554.8	24179
 555.3	24012
 555.9	24083
 556.4	24042
 556.9	24163
 557.5	24190
 558.0	24132
 558.6	24109
 559.1	24188
 559.6	24169
 560.2	24174
 560.7	24177
 561.3	24137
 561.8	24111
 562.3	24245
 562.9	24226
 563.4	24268
 563.9	24247
 564.5	24265
 565.0	24249
 565.6	24274
 566.1	24267
 566.6	24269
 567.2	24261
 567.7	24369
 568.2	24275
 568.8	24285
 569.3	24259
 569.9	24340
 570.4	24319
 570.9	24289
 571.5	24283
 572.0	24275
 572.5	24339
 573.1	24286
 573.6	24342
 574.1	24326
 574.7	24321
 575.2	24294
 575.8	24335
 576.3	24423
 576.8	24383
 577.4	24388
 577.9	24411
 578.4	24359
 579.0	24374
 579.5	24497
 580.1	24399
 580.6	24407
 581.1	24495
 581.7	24521
 582.2	24443
 582.7	24492
 583.3	24543
 583.8	24511
 584.3	24453
 584.9	24521
 585.4	24522
 586.0	24489
 586.5	24524
 587.0	24488
 587.6	24579
 588.1	24525
 588.6	24599
 589.2	24543
 589.7	24557
 590.2	24555
 590.8	24543
 591.3	24577
 591.9	24515
 592.4	24588
 592.9	24515
 593.5	24499
 594.0	24503
 594.5	24523
 595.1	24502
 595.6	24473
 596.1	24537
 596.7	24506
 597.2	24549
 597.7	24469
 598.3	24486
 598.8	24459
 599.3	24469
 599.9	24447
 600.4	24444
 601.0	24445
 601.5	24437
 602.0	24427
 602.6	24366
 603.1	24382
 603.6	24391
 604.2	24510
 604.7	24407
 605.2	24477
 605.8	24381
 606.3	24404
 606.8	24487
 607.4	24462
 607.9	24505
 608.4	24445
 609.0	24485
 609.5	24536
 610.0	24506
 610.6	24612
 611.1	24515
 611.6	24551
 612.2	24554
 612.7	24615
 613.2	24611
 613.8	24531
 614.3	24565
 614.8	24619
 615.4	24544
 615.9	24650
 616.4	24705
 617.0	24652
 617.5	24759
 618.0	24775
 618.6	24693
 619.1	24729
 619.6	24808
 620.2	24814
 620.7	24881
 621.2	24842
 621.8	24882
 622.3	24918
 622.8	24875
 623.4	24915
 623.9	24978
 624.4	24951
 625.0	24959
 625.5	24952
 626.0	24970
 626.6	25031
 627.1	25016
 627.6	24965
 628.2	24929
 628.7	24967
 629.2	24951
 629.8	24983
 630.3	24988
 630.8	24970
 631.4	24952
 631.9	24979
 632.4	24861
 632.9	24889
 633.5	24886
 634.0	24840
 634.5	24926
 635.1	24853
 635.6	24835
 636.1	24817
 636.7	24868
 637.2	24871
 637.7	24761
 638.3	24873
 638.8	24865
 639.3	24887
 639.8	24820
 640.4	24835
 640.9	24869
 641.4	24758
 642.0	24749
 642.5	24773
 643.0	24743
 643.6	24842
 644.1	24799
 644.6	24809
 645.1	24853
 645.7	24823
 646.2	24785
 646.7	24805
 647.3	24842
 647.8	24851
 648.3	24823
 648.9	24861
 649.4	24760
 649.9	24839
 650.4	24855
 651.0	24900
 651.5	24914
 652.0	24976
 652.6	24916
 653.1	25001
 653.6	24903
 654.1	24987
 654.7	24937
 655.2	25030
 655.7	25069
 656.3	25087
 656.8	25026
 657.3	25088
 657.8	25027
 658.4	25029
 658.9	25041
 659.4	25126
 659.9	25124
 660.5	25094
 661.0	25145
 661.5	25199
 662.1	25159
 662.6	25164
 663.1	25131
 663.6	25214
 664.2	25161
 664.7	25136
 665.2	25055
 665.7	25202
 666.3	25157
 666.8	25171
 667.3	25171
 667.8	25133
 668.4	25165
 668.9	25178
 669.4	25159
 669.9	25193
 670.5	25120
 671.0	25138
 671.5	25091
 672.0	25154
 672.6	25157
 673.1	25199
 673.6	25101
 674.1	25137
 674.7	25129
 675.2	25185
 675.7	25032
 676.2	25034
 676.8	25113
 677.3	25130
 677.8	25049
 678.3	25174
 678.9	25101
 679.4	25038
 679.9	25115
 680.4	25117
 681.0	25081
 681.5	25123
 682.0	25091
 682.5	25128
 683.1	25033
 683.6	25084
 684.1	25019
 684.6	25138
 685.1	25073
 685.7	25097
 686.2	25073
 686.7	25035
 687.2	25013
 687.8	25105
 688.3	25043
 688.8	25067
 689.3	25007
 689.8	25045
 690.4	25033
 690.9	25046
 691.4	25052
 691.9	25080
 692.4	25037
 693.0	25115
 693.5	25087
 694.0	25073
 694.5	25069
 695.1	25043
 695.6	25000
 696.1	25079
 696.6	25065
 697.1	25089
 697.7	25117
 698.2	25040
 698.7	25075
 699.2	25037
 699.7	25047
 700.3	25026
 700.8	24993
 701.3	25115
 701.8	25074
 702.3	25020
 702.8	25028
 703.4	24995
 703.9	25012
 704.4	25005
 704.9	24981
 705.4	24979
 706.0	25073
 706.5	25071
 707.0	24975
 707.5	24971
 708.0	25004
 708.5	24947
 709.1	25021
 709.6	24981
 710.1	24945
 710.6	24921
 711.1	24912
 711.7	24940
 712.2	24931
 712.7	24947
 713.2	24914
 713.7	24918
 714.2	24859
 714.8	24953
 715.3	24884
 715.8	24883
 716.3	24884
 716.8	24781
 717.3	24766
 717.8	24887
 718.4	24893
 718.9	24817
 719.4	24904
 719.9	24803
 720.4	24850
 720.9	24860
 721.4	24852
 722.0	24888
 722.5	24867
 723.0	24855
 723.5	24875
 724.0	24833
 724.5	24815
 725.0	24858
 725.6	24779
 726.1	24845
 726.6	24973
 727.1	24907
 727.6	24957
 728.1	24980
 728.6	24931
 729.1	24921
 729.7	24907
 730.2	24935
 730.7	24973
 731.2	25012
 731.7	25002
 732.2	25011
 732.7	24994
 733.2	25033
 733.8	25017
 734.3	25031
 734.8	25005
 735.3	25026
 735.8	25019
 736.3	24985
 736.8	25023
 737.3	25081
 737.8	25019
 738.4	25013
 738.9	24956
 739.4	25067
 739.9	25047
 740.4	25054
 740.9	25037
 741.4	25038
 741.9	25036
 742.4	25065
 742.9	25039
 743.4	25139
 744.0	25053
 744.5	25048
 745.0	25066
 745.5	25155
 746.0	25131
 746.5	25133
 747.0	25069
 747.5	25063
 748.0	25040
 748.5	25060
 749.0	25069
 749.5	25174
 750.0	24996
 750.5	25059
 751.1	25060
 751.6	25075
 752.1	25073
 752.6	25026
 753.1	25062
 753.6	24997
 754.1	24972
 754.6	25021
 755.1	24973
 755.6	24991
 756.1	24898
 756.6	25008
 757.1	24969
 757.6	24962
 758.1	24931
 758.6	24945
 759.1	24871
 759.6	24920
 760.1	24870
 760.7	24825
 761.2	24913
 761.7	24850
 762.2	24833
 762.7	24890
 763.2	24744
 763.7	24847
 764.2	24766
 764.7	24772
 765.2	24811
 765.7	24778
 766.2	24739
 766.7	24794
 767.2	24733
 767.7	24753
 768.2	24737
 768.7	24692
 769.2	24684
 769.7	24740
 770.2	24710
 770.7	24707
 771.2	24677
 771.7	24663
 772.2	24677
 772.7	24735
 773.2	24709
 773.7	24667
 774.2	24609
 774.7	24663
 775.2	24645
 775.7	24627
 776.2	24622
 776.7	24655
 777.2	24567
 777.7	24664
 778.2	24638
 778.7	24685
 779.2	24699
 779.7	24733
 780.2	24550
 780.7	24637
 781.2	24639
 781.7	24716
 782.2	24630
 782.6	24715
 783.1	24725
 783.6	24685
 784.1	24653
 784.6	24639
 785.1	24651
 785.6	24643
 786.1	24689
 786.6	24703
 787.1	24647
 787.6	24642
 788.1	24639
 788.6	24625
 789.1	24614
 789.6	24657
 790.1	24679
 790.6	24679
 791.1	24567
 791.6	24580
 792.0	24597
 792.5	24641
 793.0	24616
 793.5	24621
 794.0	24554
 794.5	24647
 795.0	24615
 795.5	24593
 796.0	24610
 796.5	24542
 797.0	24569
 797.5	24627
 798.0	24459
 798.4	24497
 798.9	24494
 799.4	24504
 799.9	24517
 800.4	24358
 800.9	24475
 801.4	24542
 801.9	24503
 802.4	24410
 802.9	24481
 803.3	24487
 803.8	24441
 804.3	24385
 804.8	24444
 805.3	24393
 805.8	24379
 806.3	24372
 806.8	24353
 807.2	24348
 807.7	24327
 808.2	24338
 808.7	24257
 809.2	24265
 809.7	24197
 810.2	24267
 810.7	24191
 811.1	24208
 811.6	24215
 812.1	24161
 812.6	24111
 813.1	24159
 813.6	24179
 814.1	24158
 814.5	24108
 815.0	24137
 815.5	24087
 816.0	24043
 816.5	24109
 817.0	24051
 817.4	24037
 817.9	24078
 818.4	23995
 818.9	24088
 819.4	24042
 819.9	24014
 820.3	23975
 820.8	23975
 821.3	23988
 821.8	23986
 822.3	23933
 822.7	23914
 823.2	23980
 823.7	23927
 824.2	23929
 824.7	23904
 825.2	23929
 825.6	23903
 826.1	23890
 826.6	23947
 827.1	23934
 827.6	23926
 828.0	23855
 828.5	23829
 829.0	23871
 829.5	23807
 829.9	23817
 830.4	23888
 830.9	23863
 831.4	23891
 831.9	23839
 832.3	23922
 832.8	23863
 833.3	23862
 833.8	23951
 834.2	23942
 834.7	23771
 835.2	23873
 835.7	23876
 836.1	23876
 836.6	23856
 837.1	23857
 837.6	23863
 838.0	23903
 838.5	23924
 839.0	23925
 839.5	23925
 839.9	23833
 840.4	23843
 840.9	23806
 841.4	23847
 841.8	23879
 842.3	23889
 842.8	23910
 843.3	23907
 843.7	23797
 844.2	23785
 844.7	23881
 845.1	23851
 845.6	23764
 846.1	23791
 846.6	23823
 847.0	23709
 847.5	23765
 848.0	23749
 848.4	23785
 848.9	23742
 849.4	23733
 849.8	23753
 850.3	23751
 850.8	23803
 851.3	23755
 851.7	23753
 852.2	23756
 852.7	23745
 853.1	23729
 853.6	23669
 854.1	23714
 854.5	23674
 855.0	23660
 855.5	23648
 855.9	23715
 856.4	23692
 856.9	23599
 857.3	23667
 857.8	23633
 858.3	23668
 858.7	23622
 859.2	23649
 859.7	23625
 860.1	23688
 860.6	23659
 861.1	23593
 861.5	23642
 862.0	23639
 862.4	23604
 862.9	23559
 863.4	23599
 863.8	23603
 864.3	23599
 864.8	23507
 865.2	23553
 865.7	23564
 866.1	23590
 866.6	23492
 867.1	23579
 867.5	23558
 868.0	23529
 868.5	23477
 868.9	23471
 869.4	23578
 869.8	23527
 870.3	23466
 870.8	23543
 871.2	23482
 871.7	23472
 872.1	23412
 872.6	23455
 873.0	23424
 873.5	23522
 874.0	23518
 874.4	23400
 874.9	23450
 875.3	23429
 875.8	23354
 876.2	23141
 876.7	22988
 877.2	22610
 877.6	22157
 878.1	21713
