#xlabel Wavelength (nm)
#ylabel Spectrometer Array Counts
#title Exposure time is 12000 ms
## lambda	counts
 349.8	20685
 350.3	20979
 350.8	21266
 351.3	21498
 351.9	21630
 352.4	21755
 352.9	21831
 353.4	21786
 354.0	21778
 354.5	21827
 355.0	21819
 355.5	21839
 356.0	21790
 356.6	21742
 357.1	21787
 357.6	21765
 358.1	21797
 358.7	21732
 359.2	21752
 359.7	21764
 360.2	21813
 360.8	21765
 361.3	21869
 361.8	21807
 362.3	21836
 362.9	21790
 363.4	21872
 363.9	21868
 364.4	21899
 364.9	21795
 365.5	21876
 366.0	21850
 366.5	21793
 367.0	21850
 367.6	21867
 368.1	21871
 368.6	21789
 369.1	21850
 369.7	21906
 370.2	21809
 370.7	21806
 371.2	21854
 371.8	21907
 372.3	21821
 372.8	21903
 373.3	21914
 373.9	21844
 374.4	21857
 374.9	21911
 375.5	21783
 376.0	21917
 376.5	21861
 377.0	21893
 377.6	21832
 378.1	21909
 378.6	21825
 379.1	21826
 379.7	21810
 380.2	21885
 380.7	21883
 381.2	21828
 381.8	21811
 382.3	21846
 382.8	21823
 383.4	21871
 383.9	21813
 384.4	21979
 384.9	21872
 385.5	21887
 386.0	21891
 386.5	21961
 387.1	21887
 387.6	21911
 388.1	21895
 388.6	21919
 389.2	21897
 389.7	21921
 390.2	21889
 390.8	21991
 391.3	21957
 391.8	21936
 392.3	21913
 392.9	21895
 393.4	21882
 393.9	21959
 394.5	21951
 395.0	21893
 395.5	21913
 396.0	21904
 396.6	21868
 397.1	21965
 397.6	21965
 398.2	21962
 398.7	21956
 399.2	22066
 399.8	21926
 400.3	21987
 400.8	22039
 401.3	22003
 401.9	22009
 402.4	22042
 402.9	22020
 403.5	22051
 404.0	22023
 404.5	21964
 405.1	21971
 405.6	22073
 406.1	22036
 406.7	22039
 407.2	22041
 407.7	22123
 408.2	22111
 408.8	22111
 409.3	22135
 409.8	22175
 410.4	22139
 410.9	22145
 411.4	22079
 412.0	22151
 412.5	22206
 413.0	22147
 413.6	22198
 414.1	22153
 414.6	22176
 415.2	22230
 415.7	22166
 416.2	22216
 416.8	22194
 417.3	22175
 417.8	22196
 418.4	22300
 418.9	22226
 419.4	22384
 420.0	22248
 420.5	22318
 421.0	22242
 421.5	22339
 422.1	22309
 422.6	22375
 423.1	22391
 423.7	22357
 424.2	22339
 424.7	22374
 425.3	22352
 425.8	22370
 426.3	22350
 426.9	22420
 427.4	22335
 427.9	22476
 428.5	22405
 429.0	22433
 429.6	22389
 430.1	22471
 430.6	22463
 431.2	22381
 431.7	22491
 432.2	22448
 432.8	22420
 433.3	22532
 433.8	22531
 434.4	22488
 434.9	22492
 435.4	22542
 436.0	22512
 436.5	22507
 437.0	22581
 437.6	22542
 438.1	22600
 438.6	22607
 439.2	22633
 439.7	22623
 440.2	22555
 440.8	22582
 441.3	22594
 441.8	22587
 442.4	22553
 442.9	22585
 443.5	22628
 444.0	22612
 444.5	22642
 445.1	22539
 445.6	22578
 446.1	22602
 446.7	22616
 447.2	22631
 447.7	22613
 448.3	22687
 448.8	22637
 449.3	22671
 449.9	22603
 450.4	22715
 450.9	22749
 451.5	22743
 452.0	22707
 452.6	22715
 453.1	22779
 453.6	22787
 454.2	22648
 454.7	22723
 455.2	22746
 455.8	22799
 456.3	22728
 456.8	22868
 457.4	22775
 457.9	22788
 458.5	22835
 459.0	22787
 459.5	22837
 460.1	22779
 460.6	22832
 461.1	22818
 461.7	22866
 462.2	22823
 462.7	22861
 463.3	22775
 463.8	22851
 464.4	22925
 464.9	22852
 465.4	22935
 466.0	22822
 466.5	22901
 467.0	22827
 467.6	22887
 468.1	22990
 468.7	22916
 469.2	22828
 469.7	22933
 470.3	22901
 470.8	22945
 471.3	22924
 471.9	22871
 472.4	22930
 473.0	22969
 473.5	22993
 474.0	22979
 474.6	22977
 475.1	22974
 475.6	23050
 476.2	23059
 476.7	23033
 477.3	23093
 477.8	23023
 478.3	22937
 478.9	23172
 479.4	23043
 479.9	23055
 480.5	23031
 481.0	23063
 481.6	23079
 482.1	23155
 482.6	23119
 483.2	23129
 483.7	23254
 484.2	23188
 484.8	22996
 485.3	23105
 485.9	23189
 486.4	23146
 486.9	23171
 487.5	23116
 488.0	23128
 488.6	23193
 489.1	23203
 489.6	23259
 490.2	23252
 490.7	23207
 491.2	23163
 491.8	23237
 492.3	23173
 492.9	23230
 493.4	23235
 493.9	23261
 494.5	23259
 495.0	23333
 495.6	23243
 496.1	23261
 496.6	23327
 497.2	23230
 497.7	23193
 498.2	23298
 498.8	23314
 499.3	23221
 499.9	23282
 500.4	23277
 500.9	23255
 501.5	23243
 502.0	23329
 502.6	23298
 503.1	23391
 503.6	23352
 504.2	23302
 504.7	23306
 505.2	23367
 505.8	23352
 506.3	23454
 506.9	23455
 507.4	23412
 507.9	23381
 508.5	23418
 509.0	23464
 509.6	23537
 510.1	23506
 510.6	23540
 511.2	23559
 511.7	23539
 512.2	23615
 512.8	23639
 513.3	23597
 513.9	23580
 514.4	23645
 514.9	23732
 515.5	23615
 516.0	23699
 516.6	23661
 517.1	23722
 517.6	23701
 518.2	23673
 518.7	23606
 519.3	23671
 519.8	23720
 520.3	23705
 520.9	23654
 521.4	23663
 521.9	23734
 522.5	23640
 523.0	23666
 523.6	23708
 524.1	23541
 524.6	23601
 525.2	23628
 525.7	23662
 526.3	23579
 526.8	23679
 527.3	23621
 527.9	23647
 528.4	23623
 528.9	23683
 529.5	23703
 530.0	23689
 530.6	23745
 531.1	23748
 531.6	23647
 532.2	23775
 532.7	23733
 533.3	23779
 533.8	23914
 534.3	23959
 534.9	23944
 535.4	23886
 536.0	23968
 536.5	24008
 537.0	23966
 537.6	23997
 538.1	24051
 538.6	24071
 539.2	24005
 539.7	24023
 540.3	24144
 540.8	24098
 541.3	24047
 541.9	24083
 542.4	24089
 543.0	24163
 543.5	24125
 544.0	24094
 544.6	24143
 545.1	24155
 545.6	24197
 546.2	24177
 546.7	24074
 547.3	24143
 547.8	24119
 548.3	24174
 548.9	24081
 549.4	24077
 550.0	24042
 550.5	24119
 551.0	24171
 551.6	24109
 552.1	24129
 552.6	24135
 553.2	24095
 553.7	24073
 554.3	24121
 554.8	24195
 555.3	24032
 555.9	24097
 556.4	24061
 556.9	24175
 557.5	24207
 558.0	24150
 558.6	24130
 559.1	24203
 559.6	24189
 560.2	24189
 560.7	24194
 561.3	24155
 561.8	24126
 562.3	24262
 562.9	24240
 563.4	24283
 563.9	24267
 564.5	24279
 565.0	24268
 565.6	24286
 566.1	24280
 566.6	24289
 567.2	24276
 567.7	24387
 568.2	24293
 568.8	24310
 569.3	24277
 569.9	24351
 570.4	24334
 570.9	24303
 571.5	24298
 572.0	24288
 572.5	24353
 573.1	24298
 573.6	24358
 574.1	24341
 574.7	24336
 575.2	24310
 575.8	24355
 576.3	24441
 576.8	24394
 577.4	24406
 577.9	24431
 578.4	24373
 579.0	24386
 579.5	24507
 580.1	24409
 580.6	24422
 581.1	24512
 581.7	24535
 582.2	24461
 582.7	24509
 583.3	24561
 583.8	24531
 584.3	24473
 584.9	24536
 585.4	24534
 586.0	24508
 586.5	24545
 587.0	24508
 587.6	24594
 588.1	24540
 588.6	24619
 589.2	24561
 589.7	24583
 590.2	24569
 590.8	24564
 591.3	24596
 591.9	24529
 592.4	24603
 592.9	24535
 593.5	24519
 594.0	24521
 594.5	24540
 595.1	24524
 595.6	24496
 596.1	24551
 596.7	24526
 597.2	24566
 597.7	24486
 598.3	24504
 598.8	24481
 599.3	24483
 599.9	24465
 600.4	24456
 601.0	24466
 601.5	24455
 602.0	24446
 602.6	24383
 603.1	24402
 603.6	24407
 604.2	24526
 604.7	24423
 605.2	24493
 605.8	24393
 606.3	24422
 606.8	24500
 607.4	24475
 607.9	24523
 608.4	24459
 609.0	24501
 609.5	24551
 610.0	24521
 610.6	24628
 611.1	24541
 611.6	24567
 612.2	24566
 612.7	24640
 613.2	24628
 613.8	24547
 614.3	24580
 614.8	24637
 615.4	24563
 615.9	24664
 616.4	24729
 617.0	24668
 617.5	24778
 618.0	24795
 618.6	24712
 619.1	24749
 619.6	24827
 620.2	24826
 620.7	24899
 621.2	24858
 621.8	24898
 622.3	24933
 622.8	24897
 623.4	24933
 623.9	24993
 624.4	24970
 625.0	24978
 625.5	24973
 626.0	24984
 626.6	25047
 627.1	25041
 627.6	24980
 628.2	24949
 628.7	24986
 629.2	24970
 629.8	25003
 630.3	25007
 630.8	24994
 631.4	24973
 631.9	24999
 632.4	24881
 632.9	24911
 633.5	24907
 634.0	24859
 634.5	24944
 635.1	24874
 635.6	24860
 636.1	24836
 636.7	24886
 637.2	24887
 637.7	24779
 638.3	24894
 638.8	24886
 639.3	24909
 639.8	24842
 640.4	24852
 640.9	24884
 641.4	24777
 642.0	24769
 642.5	24791
 643.0	24757
 643.6	24859
 644.1	24815
 644.6	24830
 645.1	24871
 645.7	24841
 646.2	24797
 646.7	24822
 647.3	24855
 647.8	24868
 648.3	24837
 648.9	24877
 649.4	24777
 649.9	24862
 650.4	24875
 651.0	24922
 651.5	24929
 652.0	24995
 652.6	24933
 653.1	25021
 653.6	24926
 654.1	25001
 654.7	24950
 655.2	25049
 655.7	25089
 656.3	25103
 656.8	25042
 657.3	25107
 657.8	25043
 658.4	25051
 658.9	25057
 659.4	25143
 659.9	25140
 660.5	25115
 661.0	25165
 661.5	25217
 662.1	25171
 662.6	25185
 663.1	25148
 663.6	25235
 664.2	25182
 664.7	25153
 665.2	25071
 665.7	25220
 666.3	25172
 666.8	25183
 667.3	25195
 667.8	25148
 668.4	25182
 668.9	25195
 669.4	25177
 669.9	25209
 670.5	25138
 671.0	25158
 671.5	25109
 672.0	25175
 672.6	25178
 673.1	25219
 673.6	25118
 674.1	25155
 674.7	25147
 675.2	25200
 675.7	25046
 676.2	25055
 676.8	25127
 677.3	25142
 677.8	25069
 678.3	25186
 678.9	25119
 679.4	25059
 679.9	25130
 680.4	25136
 681.0	25094
 681.5	25142
 682.0	25110
 682.5	25145
 683.1	25045
 683.6	25099
 684.1	25031
 684.6	25156
 685.1	25090
 685.7	25113
 686.2	25094
 686.7	25051
 687.2	25036
 687.8	25120
 688.3	25063
 688.8	25087
 689.3	25022
 689.8	25056
 690.4	25052
 690.9	25065
 691.4	25071
 691.9	25100
 692.4	25054
 693.0	25136
 693.5	25101
 694.0	25088
 694.5	25081
 695.1	25057
 695.6	25015
 696.1	25101
 696.6	25087
 697.1	25104
 697.7	25135
 698.2	25052
 698.7	25093
 699.2	25058
 699.7	25071
 700.3	25037
 700.8	25014
 701.3	25130
 701.8	25091
 702.3	25032
 702.8	25040
 703.4	25015
 703.9	25026
 704.4	25023
 704.9	24997
 705.4	24997
 706.0	25092
 706.5	25087
 707.0	24990
 707.5	24983
 708.0	25016
 708.5	24962
 709.1	25039
 709.6	25001
 710.1	24963
 710.6	24931
 711.1	24930
 711.7	24955
 712.2	24950
 712.7	24963
 713.2	24934
 713.7	24934
 714.2	24869
 714.8	24970
 715.3	24904
 715.8	24899
 716.3	24901
 716.8	24799
 717.3	24782
 717.8	24899
 718.4	24911
 718.9	24829
 719.4	24926
 719.9	24818
 720.4	24867
 720.9	24878
 721.4	24869
 722.0	24904
 722.5	24885
 723.0	24871
 723.5	24890
 724.0	24851
 724.5	24841
 725.0	24874
 725.6	24795
 726.1	24860
 726.6	24991
 727.1	24923
 727.6	24971
 728.1	24997
 728.6	24943
 729.1	24941
 729.7	24925
 730.2	24958
 730.7	24986
 731.2	25031
 731.7	25025
 732.2	25027
 732.7	25010
 733.2	25054
 733.8	25035
 734.3	25053
 734.8	25023
 735.3	25043
 735.8	25039
 736.3	25001
 736.8	25043
 737.3	25093
 737.8	25041
 738.4	25024
 738.9	24976
 739.4	25083
 739.9	25061
 740.4	25074
 740.9	25052
 741.4	25051
 741.9	25055
 742.4	25081
 742.9	25061
 743.4	25159
 744.0	25070
 744.5	25070
 745.0	25081
 745.5	25169
 746.0	25141
 746.5	25156
 747.0	25083
 747.5	25079
 748.0	25051
 748.5	25077
 749.0	25085
 749.5	25194
 750.0	25011
 750.5	25074
 751.1	25079
 751.6	25094
 752.1	25083
 752.6	25041
 753.1	25085
 753.6	25018
 754.1	24985
 754.6	25035
 755.1	24991
 755.6	25005
 756.1	24913
 756.6	25031
 757.1	24990
 757.6	24979
 758.1	24951
 758.6	24959
 759.1	24889
 759.6	24935
 760.1	24877
 760.7	24839
 761.2	24929
 761.7	24869
 762.2	24849
 762.7	24907
 763.2	24755
 763.7	24858
 764.2	24782
 764.7	24787
 765.2	24825
 765.7	24791
 766.2	24751
 766.7	24807
 767.2	24749
 767.7	24769
 768.2	24744
 768.7	24708
 769.2	24693
 769.7	24752
 770.2	24724
 770.7	24721
 771.2	24695
 771.7	24682
 772.2	24696
 772.7	24749
 773.2	24720
 773.7	24678
 774.2	24622
 774.7	24679
 775.2	24663
 775.7	24641
 776.2	24637
 776.7	24676
 777.2	24589
 777.7	24680
 778.2	24655
 778.7	24704
 779.2	24714
 779.7	24751
 780.2	24571
 780.7	24653
 781.2	24655
 781.7	24735
 782.2	24646
 782.6	24732
 783.1	24740
 783.6	24700
 784.1	24660
 784.6	24651
 785.1	24661
 785.6	24663
 786.1	24701
 786.6	24717
 787.1	24657
 787.6	24658
 788.1	24649
 788.6	24644
 789.1	24623
 789.6	24668
 790.1	24690
 790.6	24693
 791.1	24577
 791.6	24599
 792.0	24614
 792.5	24655
 793.0	24634
 793.5	24631
 794.0	24566
 794.5	24663
 795.0	24631
 795.5	24609
 796.0	24621
 796.5	24557
 797.0	24591
 797.5	24637
 798.0	24473
 798.4	24510
 798.9	24501
 799.4	24516
 799.9	24529
 800.4	24375
 800.9	24487
 801.4	24553
 801.9	24514
 802.4	24427
 802.9	24497
 803.3	24496
 803.8	24457
 804.3	24391
 804.8	24465
 805.3	24411
 805.8	24395
 806.3	24387
 806.8	24373
 807.2	24367
 807.7	24337
 808.2	24356
 808.7	24270
 809.2	24278
 809.7	24203
 810.2	24279
 810.7	24201
 811.1	24224
 811.6	24225
 812.1	24170
 812.6	24123
 813.1	24182
 813.6	24197
 814.1	24165
 814.5	24119
 815.0	24151
 815.5	24105
 816.0	24060
 816.5	24116
 817.0	24067
 817.4	24047
 817.9	24084
 818.4	24006
 818.9	24102
 819.4	24047
 819.9	24019
 820.3	23983
 820.8	23985
 821.3	23999
 821.8	23997
 822.3	23947
 822.7	23923
 823.2	23991
 823.7	23929
 824.2	23941
 824.7	23914
 825.2	23940
 825.6	23918
 826.1	23899
 826.6	23962
 827.1	23938
 827.6	23935
 828.0	23865
 828.5	23839
 829.0	23886
 829.5	23816
 829.9	23827
 830.4	23894
 830.9	23875
 831.4	23906
 831.9	23851
 832.3	23933
 832.8	23873
 833.3	23873
 833.8	23959
 834.2	23954
 834.7	23783
 835.2	23885
 835.7	23881
 836.1	23885
 836.6	23863
 837.1	23862
 837.6	23873
 838.0	23910
 838.5	23931
 839.0	23940
 839.5	23931
 839.9	23846
 840.4	23853
 840.9	23815
 841.4	23855
 841.8	23891
 842.3	23900
 842.8	23920
 843.3	23915
 843.7	23807
 844.2	23797
 844.7	23893
 845.1	23862
 845.6	23769
 846.1	23801
 846.6	23830
 847.0	23719
 847.5	23777
 848.0	23756
 848.4	23797
 848.9	23755
 849.4	23738
 849.8	23759
 850.3	23761
 850.8	23809
 851.3	23767
 851.7	23762
 852.2	23767
 852.7	23751
 853.1	23738
 853.6	23679
 854.1	23723
 854.5	23677
 855.0	23667
 855.5	23656
 855.9	23720
 856.4	23705
 856.9	23613
 857.3	23677
 857.8	23639
 858.3	23677
 858.7	23625
 859.2	23656
 859.7	23639
 860.1	23698
 860.6	23673
 861.1	23605
 861.5	23655
 862.0	23653
 862.4	23613
 862.9	23566
 863.4	23608
 863.8	23610
 864.3	23603
 864.8	23518
 865.2	23559
 865.7	23575
 866.1	23595
 866.6	23500
 867.1	23577
 867.5	23557
 868.0	23539
 868.5	23478
 868.9	23475
 869.4	23580
 869.8	23532
 870.3	23475
 870.8	23553
 871.2	23494
 871.7	23490
 872.1	23434
 872.6	23491
 873.0	23463
 873.5	23567
 874.0	23560
 874.4	23450
 874.9	23504
 875.3	23479
 875.8	23387
 876.2	23164
 876.7	22994
 877.2	22603
 877.6	22145
 878.1	21694
