#xlabel Wavelength (nm)
#ylabel Spectrometer Array Counts
#title Exposure time is 10000 ms
## lambda	counts
 349.8	17206
 350.3	17470
 350.8	17726
 351.3	17922
 351.9	18025
 352.4	18148
 352.9	18221
 353.4	18185
 354.0	18189
 354.5	18225
 355.0	18227
 355.5	18239
 356.0	18198
 356.6	18159
 357.1	18205
 357.6	18185
 358.1	18203
 358.7	18142
 359.2	18157
 359.7	18170
 360.2	18208
 360.8	18178
 361.3	18266
 361.8	18210
 362.3	18240
 362.9	18198
 363.4	18268
 363.9	18266
 364.4	18295
 364.9	18201
 365.5	18276
 366.0	18257
 366.5	18217
 367.0	18251
 367.6	18282
 368.1	18282
 368.6	18210
 369.1	18272
 369.7	18319
 370.2	18243
 370.7	18240
 371.2	18283
 371.8	18332
 372.3	18256
 372.8	18335
 373.3	18342
 373.9	18289
 374.4	18301
 374.9	18343
 375.5	18242
 376.0	18363
 376.5	18324
 377.0	18344
 377.6	18293
 378.1	18371
 378.6	18309
 379.1	18309
 379.7	18285
 380.2	18362
 380.7	18357
 381.2	18315
 381.8	18310
 382.3	18349
 382.8	18330
 383.4	18372
 383.9	18323
 384.4	18471
 384.9	18382
 385.5	18395
 386.0	18399
 386.5	18471
 387.1	18398
 387.6	18416
 388.1	18419
 388.6	18435
 389.2	18422
 389.7	18444
 390.2	18421
 390.8	18503
 391.3	18473
 391.8	18471
 392.3	18455
 392.9	18453
 393.4	18442
 393.9	18515
 394.5	18512
 395.0	18467
 395.5	18485
 396.0	18483
 396.6	18453
 397.1	18540
 397.6	18537
 398.2	18541
 398.7	18537
 399.2	18627
 399.8	18500
 400.3	18570
 400.8	18611
 401.3	18582
 401.9	18601
 402.4	18616
 402.9	18607
 403.5	18631
 404.0	18619
 404.5	18565
 405.1	18573
 405.6	18666
 406.1	18645
 406.7	18648
 407.2	18655
 407.7	18732
 408.2	18732
 408.8	18729
 409.3	18759
 409.8	18807
 410.4	18764
 410.9	18767
 411.4	18722
 412.0	18783
 412.5	18829
 413.0	18783
 413.6	18819
 414.1	18785
 414.6	18815
 415.2	18862
 415.7	18795
 416.2	18847
 416.8	18832
 417.3	18816
 417.8	18842
 418.4	18925
 418.9	18864
 419.4	18988
 420.0	18882
 420.5	18947
 421.0	18888
 421.5	18969
 422.1	18949
 422.6	19005
 423.1	19031
 423.7	18999
 424.2	18980
 424.7	19017
 425.3	18997
 425.8	19017
 426.3	19003
 426.9	19056
 427.4	19005
 427.9	19111
 428.5	19050
 429.0	19094
 429.6	19055
 430.1	19132
 430.6	19128
 431.2	19075
 431.7	19173
 432.2	19145
 432.8	19117
 433.3	19230
 433.8	19235
 434.4	19213
 434.9	19230
 435.4	19281
 436.0	19261
 436.5	19263
 437.0	19333
 437.6	19311
 438.1	19365
 438.6	19367
 439.2	19395
 439.7	19383
 440.2	19339
 440.8	19366
 441.3	19363
 441.8	19369
 442.4	19333
 442.9	19359
 443.5	19394
 444.0	19389
 444.5	19415
 445.1	19332
 445.6	19370
 446.1	19390
 446.7	19407
 447.2	19425
 447.7	19415
 448.3	19491
 448.8	19453
 449.3	19497
 449.9	19447
 450.4	19550
 450.9	19594
 451.5	19602
 452.0	19575
 452.6	19601
 453.1	19660
 453.6	19683
 454.2	19584
 454.7	19660
 455.2	19685
 455.8	19738
 456.3	19685
 456.8	19817
 457.4	19739
 457.9	19755
 458.5	19801
 459.0	19767
 459.5	19803
 460.1	19760
 460.6	19805
 461.1	19787
 461.7	19835
 462.2	19789
 462.7	19831
 463.3	19760
 463.8	19829
 464.4	19899
 464.9	19844
 465.4	19909
 466.0	19814
 466.5	19882
 467.0	19823
 467.6	19894
 468.1	19983
 468.7	19921
 469.2	19863
 469.7	19953
 470.3	19943
 470.8	19985
 471.3	19964
 471.9	19931
 472.4	19991
 473.0	20037
 473.5	20059
 474.0	20059
 474.6	20069
 475.1	20067
 475.6	20141
 476.2	20157
 476.7	20139
 477.3	20199
 477.8	20147
 478.3	20081
 478.9	20285
 479.4	20176
 479.9	20197
 480.5	20186
 481.0	20215
 481.6	20242
 482.1	20308
 482.6	20297
 483.2	20314
 483.7	20429
 484.2	20364
 484.8	20216
 485.3	20319
 485.9	20402
 486.4	20369
 486.9	20395
 487.5	20364
 488.0	20377
 488.6	20436
 489.1	20449
 489.6	20509
 490.2	20507
 490.7	20467
 491.2	20441
 491.8	20502
 492.3	20457
 492.9	20509
 493.4	20522
 493.9	20534
 494.5	20539
 495.0	20604
 495.6	20526
 496.1	20532
 496.6	20587
 497.2	20507
 497.7	20469
 498.2	20556
 498.8	20580
 499.3	20498
 499.9	20547
 500.4	20551
 500.9	20537
 501.5	20529
 502.0	20607
 502.6	20591
 503.1	20677
 503.6	20648
 504.2	20615
 504.7	20629
 505.2	20706
 505.8	20705
 506.3	20803
 506.9	20820
 507.4	20799
 507.9	20796
 508.5	20839
 509.0	20899
 509.6	20977
 510.1	20960
 510.6	21013
 511.2	21051
 511.7	21048
 512.2	21124
 512.8	21156
 513.3	21129
 513.9	21134
 514.4	21199
 514.9	21283
 515.5	21188
 516.0	21261
 516.6	21227
 517.1	21275
 517.6	21260
 518.2	21228
 518.7	21163
 519.3	21211
 519.8	21243
 520.3	21233
 520.9	21183
 521.4	21175
 521.9	21226
 522.5	21142
 523.0	21164
 523.6	21190
 524.1	21043
 524.6	21092
 525.2	21117
 525.7	21149
 526.3	21075
 526.8	21163
 527.3	21121
 527.9	21145
 528.4	21139
 528.9	21204
 529.5	21224
 530.0	21219
 530.6	21281
 531.1	21301
 531.6	21229
 532.2	21358
 532.7	21330
 533.3	21386
 533.8	21522
 534.3	21565
 534.9	21583
 535.4	21550
 536.0	21631
 536.5	21689
 537.0	21671
 537.6	21713
 538.1	21775
 538.6	21810
 539.2	21761
 539.7	21787
 540.3	21895
 540.8	21872
 541.3	21842
 541.9	21879
 542.4	21882
 543.0	21952
 543.5	21915
 544.0	21895
 544.6	21937
 545.1	21949
 545.6	21989
 546.2	21973
 546.7	21881
 547.3	21941
 547.8	21917
 548.3	21967
 548.9	21874
 549.4	21871
 550.0	21838
 550.5	21905
 551.0	21943
 551.6	21887
 552.1	21912
 552.6	21907
 553.2	21878
 553.7	21853
 554.3	21890
 554.8	21961
 555.3	21820
 555.9	21894
 556.4	21861
 556.9	21958
 557.5	21987
 558.0	21944
 558.6	21935
 559.1	22007
 559.6	21997
 560.2	22002
 560.7	22015
 561.3	21989
 561.8	21976
 562.3	22100
 562.9	22085
 563.4	22125
 563.9	22117
 564.5	22131
 565.0	22126
 565.6	22156
 566.1	22161
 566.6	22157
 567.2	22151
 567.7	22257
 568.2	22169
 568.8	22178
 569.3	22155
 569.9	22228
 570.4	22219
 570.9	22188
 571.5	22187
 572.0	22184
 572.5	22244
 573.1	22190
 573.6	22248
 574.1	22242
 574.7	22239
 575.2	22222
 575.8	22264
 576.3	22342
 576.8	22316
 577.4	22331
 577.9	22352
 578.4	22321
 579.0	22337
 579.5	22447
 580.1	22379
 580.6	22399
 581.1	22484
 581.7	22507
 582.2	22459
 582.7	22514
 583.3	22559
 583.8	22537
 584.3	22499
 584.9	22559
 585.4	22567
 586.0	22552
 586.5	22590
 587.0	22561
 587.6	22644
 588.1	22600
 588.6	22673
 589.2	22618
 589.7	22640
 590.2	22627
 590.8	22629
 591.3	22651
 591.9	22593
 592.4	22652
 592.9	22581
 593.5	22569
 594.0	22559
 594.5	22563
 595.1	22543
 595.6	22511
 596.1	22551
 596.7	22509
 597.2	22543
 597.7	22479
 598.3	22479
 598.8	22444
 599.3	22449
 599.9	22413
 600.4	22406
 601.0	22405
 601.5	22391
 602.0	22382
 602.6	22327
 603.1	22341
 603.6	22339
 604.2	22443
 604.7	22351
 605.2	22419
 605.8	22335
 606.3	22363
 606.8	22441
 607.4	22418
 607.9	22463
 608.4	22412
 609.0	22451
 609.5	22506
 610.0	22487
 610.6	22589
 611.1	22508
 611.6	22553
 612.2	22558
 612.7	22627
 613.2	22626
 613.8	22570
 614.3	22612
 614.8	22674
 615.4	22622
 615.9	22715
 616.4	22787
 617.0	22744
 617.5	22846
 618.0	22876
 618.6	22825
 619.1	22871
 619.6	22964
 620.2	22982
 620.7	23053
 621.2	23034
 621.8	23089
 622.3	23127
 622.8	23106
 623.4	23152
 623.9	23220
 624.4	23201
 625.0	23210
 625.5	23219
 626.0	23231
 626.6	23284
 627.1	23274
 627.6	23225
 628.2	23194
 628.7	23223
 629.2	23203
 629.8	23226
 630.3	23233
 630.8	23209
 631.4	23181
 631.9	23195
 632.4	23077
 632.9	23085
 633.5	23072
 634.0	23022
 634.5	23083
 635.1	23010
 635.6	22981
 636.1	22951
 636.7	22982
 637.2	22963
 637.7	22864
 638.3	22952
 638.8	22931
 639.3	22935
 639.8	22876
 640.4	22886
 640.9	22897
 641.4	22803
 642.0	22788
 642.5	22805
 643.0	22772
 643.6	22853
 644.1	22806
 644.6	22816
 645.1	22846
 645.7	22831
 646.2	22791
 646.7	22811
 647.3	22843
 647.8	22848
 648.3	22824
 648.9	22861
 649.4	22785
 649.9	22863
 650.4	22866
 651.0	22915
 651.5	22936
 652.0	22993
 652.6	22943
 653.1	23025
 653.6	22944
 654.1	23029
 654.7	22991
 655.2	23074
 655.7	23120
 656.3	23141
 656.8	23095
 657.3	23157
 657.8	23117
 658.4	23115
 658.9	23131
 659.4	23214
 659.9	23211
 660.5	23198
 661.0	23244
 661.5	23291
 662.1	23253
 662.6	23265
 663.1	23234
 663.6	23315
 664.2	23273
 664.7	23242
 665.2	23170
 665.7	23290
 666.3	23263
 666.8	23261
 667.3	23263
 667.8	23227
 668.4	23251
 668.9	23255
 669.4	23239
 669.9	23263
 670.5	23198
 671.0	23212
 671.5	23157
 672.0	23215
 672.6	23215
 673.1	23235
 673.6	23155
 674.1	23184
 674.7	23171
 675.2	23214
 675.7	23075
 676.2	23078
 676.8	23128
 677.3	23135
 677.8	23067
 678.3	23173
 678.9	23098
 679.4	23043
 679.9	23102
 680.4	23105
 681.0	23066
 681.5	23100
 682.0	23070
 682.5	23088
 683.1	22999
 683.6	23044
 684.1	22982
 684.6	23085
 685.1	23024
 685.7	23041
 686.2	23017
 686.7	22973
 687.2	22967
 687.8	23033
 688.3	22969
 688.8	22995
 689.3	22940
 689.8	22968
 690.4	22961
 690.9	22972
 691.4	22975
 691.9	23001
 692.4	22959
 693.0	23027
 693.5	22998
 694.0	22985
 694.5	22976
 695.1	22959
 695.6	22929
 696.1	22992
 696.6	22976
 697.1	22993
 697.7	23025
 698.2	22958
 698.7	22977
 699.2	22943
 699.7	22945
 700.3	22929
 700.8	22900
 701.3	23006
 701.8	22962
 702.3	22912
 702.8	22911
 703.4	22890
 703.9	22891
 704.4	22883
 704.9	22847
 705.4	22846
 706.0	22928
 706.5	22913
 707.0	22826
 707.5	22814
 708.0	22839
 708.5	22785
 709.1	22845
 709.6	22809
 710.1	22769
 710.6	22751
 711.1	22745
 711.7	22757
 712.2	22760
 712.7	22767
 713.2	22739
 713.7	22738
 714.2	22690
 714.8	22772
 715.3	22720
 715.8	22723
 716.3	22732
 716.8	22644
 717.3	22637
 717.8	22738
 718.4	22748
 718.9	22679
 719.4	22759
 719.9	22675
 720.4	22722
 720.9	22729
 721.4	22722
 722.0	22757
 722.5	22737
 723.0	22727
 723.5	22736
 724.0	22705
 724.5	22699
 725.0	22719
 725.6	22653
 726.1	22703
 726.6	22817
 727.1	22759
 727.6	22800
 728.1	22818
 728.6	22779
 729.1	22764
 729.7	22755
 730.2	22778
 730.7	22809
 731.2	22839
 731.7	22826
 732.2	22835
 732.7	22817
 733.2	22853
 733.8	22835
 734.3	22852
 734.8	22829
 735.3	22851
 735.8	22843
 736.3	22815
 736.8	22853
 737.3	22896
 737.8	22851
 738.4	22843
 738.9	22800
 739.4	22888
 739.9	22872
 740.4	22882
 740.9	22867
 741.4	22865
 741.9	22861
 742.4	22873
 742.9	22862
 743.4	22941
 744.0	22854
 744.5	22851
 745.0	22861
 745.5	22934
 746.0	22905
 746.5	22904
 747.0	22847
 747.5	22834
 748.0	22805
 748.5	22816
 749.0	22829
 749.5	22907
 750.0	22748
 750.5	22799
 751.1	22798
 751.6	22791
 752.1	22777
 752.6	22741
 753.1	22770
 753.6	22698
 754.1	22665
 754.6	22705
 755.1	22652
 755.6	22655
 756.1	22567
 756.6	22660
 757.1	22621
 757.6	22597
 758.1	22557
 758.6	22566
 759.1	22489
 759.6	22521
 760.1	22457
 760.7	22413
 761.2	22486
 761.7	22427
 762.2	22401
 762.7	22447
 763.2	22299
 763.7	22375
 764.2	22312
 764.7	22302
 765.2	22320
 765.7	22284
 766.2	22233
 766.7	22270
 767.2	22214
 767.7	22219
 768.2	22185
 768.7	22143
 769.2	22129
 769.7	22170
 770.2	22130
 770.7	22123
 771.2	22105
 771.7	22067
 772.2	22079
 772.7	22114
 773.2	22090
 773.7	22039
 774.2	21989
 774.7	22025
 775.2	22010
 775.7	21987
 776.2	21978
 776.7	21998
 777.2	21915
 777.7	21987
 778.2	21970
 778.7	22007
 779.2	22006
 779.7	22037
 780.2	21881
 780.7	21943
 781.2	21943
 781.7	22009
 782.2	21926
 782.6	22004
 783.1	21998
 783.6	21965
 784.1	21925
 784.6	21919
 785.1	21930
 785.6	21917
 786.1	21947
 786.6	21958
 787.1	21899
 787.6	21899
 788.1	21889
 788.6	21874
 789.1	21872
 789.6	21902
 790.1	21911
 790.6	21907
 791.1	21809
 791.6	21812
 792.0	21823
 792.5	21852
 793.0	21837
 793.5	21823
 794.0	21751
 794.5	21833
 795.0	21811
 795.5	21779
 796.0	21783
 796.5	21729
 797.0	21745
 797.5	21771
 798.0	21629
 798.4	21661
 798.9	21636
 799.4	21647
 799.9	21639
 800.4	21509
 800.9	21586
 801.4	21644
 801.9	21589
 802.4	21507
 802.9	21567
 803.3	21551
 803.8	21512
 804.3	21449
 804.8	21500
 805.3	21445
 805.8	21420
 806.3	21407
 806.8	21391
 807.2	21373
 807.7	21323
 808.2	21346
 808.7	21264
 809.2	21263
 809.7	21188
 810.2	21237
 810.7	21171
 811.1	21175
 811.6	21169
 812.1	21118
 812.6	21071
 813.1	21103
 813.6	21114
 814.1	21085
 814.5	21042
 815.0	21053
 815.5	21003
 816.0	20961
 816.5	21014
 817.0	20955
 817.4	20937
 817.9	20961
 818.4	20887
 818.9	20965
 819.4	20911
 819.9	20883
 820.3	20846
 820.8	20839
 821.3	20838
 821.8	20857
 822.3	20789
 822.7	20765
 823.2	20818
 823.7	20763
 824.2	20771
 824.7	20736
 825.2	20751
 825.6	20725
 826.1	20714
 826.6	20760
 827.1	20743
 827.6	20733
 828.0	20670
 828.5	20641
 829.0	20670
 829.5	20617
 829.9	20615
 830.4	20664
 830.9	20655
 831.4	20669
 831.9	20624
 832.3	20701
 832.8	20639
 833.3	20630
 833.8	20711
 834.2	20695
 834.7	20544
 835.2	20633
 835.7	20635
 836.1	20623
 836.6	20607
 837.1	20602
 837.6	20611
 838.0	20643
 838.5	20668
 839.0	20661
 839.5	20647
 839.9	20567
 840.4	20569
 840.9	20538
 841.4	20580
 841.8	20598
 842.3	20602
 842.8	20625
 843.3	20620
 843.7	20513
 844.2	20501
 844.7	20587
 845.1	20549
 845.6	20473
 846.1	20490
 846.6	20523
 847.0	20419
 847.5	20469
 848.0	20450
 848.4	20487
 848.9	20447
 849.4	20432
 849.8	20449
 850.3	20437
 850.8	20477
 851.3	20441
 851.7	20433
 852.2	20435
 852.7	20423
 853.1	20391
 853.6	20348
 854.1	20385
 854.5	20347
 855.0	20332
 855.5	20317
 855.9	20376
 856.4	20365
 856.9	20270
 857.3	20327
 857.8	20293
 858.3	20329
 858.7	20281
 859.2	20290
 859.7	20286
 860.1	20336
 860.6	20313
 861.1	20248
 861.5	20290
 862.0	20294
 862.4	20263
 862.9	20221
 863.4	20256
 863.8	20255
 864.3	20251
 864.8	20167
 865.2	20216
 865.7	20235
 866.1	20239
 866.6	20155
 867.1	20229
 867.5	20216
 868.0	20179
 868.5	20131
 868.9	20131
 869.4	20227
 869.8	20176
 870.3	20134
 870.8	20198
 871.2	20151
 871.7	20137
 872.1	20088
 872.6	20145
 873.0	20127
 873.5	20208
 874.0	20203
 874.4	20102
 874.9	20141
 875.3	20105
 875.8	20014
 876.2	19808
 876.7	19649
 877.2	19315
 877.6	18893
 878.1	18481
