#xlabel Wavelength (nm)
#ylabel Spectrometer Array Counts
#title Exposure time is 10000 ms
## lambda	counts
 349.8	17404
 350.3	17699
 350.8	17962
 351.3	18148
 351.9	18237
 352.4	18339
 352.9	18394
 353.4	18345
 354.0	18338
 354.5	18375
 355.0	18379
 355.5	18393
 356.0	18355
 356.6	18325
 357.1	18380
 357.6	18358
 358.1	18387
 358.7	18330
 359.2	18349
 359.7	18369
 360.2	18405
 360.8	18376
 361.3	18467
 361.8	18419
 362.3	18452
 362.9	18412
 363.4	18485
 363.9	18490
 364.4	18520
 364.9	18431
 365.5	18510
 366.0	18494
 366.5	18452
 367.0	18498
 367.6	18527
 368.1	18529
 368.6	18467
 369.1	18531
 369.7	18581
 370.2	18510
 370.7	18514
 371.2	18562
 371.8	18614
 372.3	18540
 372.8	18623
 373.3	18645
 373.9	18595
 374.4	18619
 374.9	18669
 375.5	18565
 376.0	18697
 376.5	18662
 377.0	18693
 377.6	18645
 378.1	18734
 378.6	18678
 379.1	18685
 379.7	18674
 380.2	18755
 380.7	18759
 381.2	18726
 381.8	18725
 382.3	18773
 382.8	18758
 383.4	18809
 383.9	18768
 384.4	18921
 384.9	18835
 385.5	18857
 386.0	18868
 386.5	18939
 387.1	18877
 387.6	18897
 388.1	18909
 388.6	18935
 389.2	18929
 389.7	18962
 390.2	18947
 390.8	19048
 391.3	19026
 391.8	19038
 392.3	19037
 392.9	19050
 393.4	19051
 393.9	19133
 394.5	19153
 395.0	19114
 395.5	19142
 396.0	19161
 396.6	19135
 397.1	19240
 397.6	19242
 398.2	19253
 398.7	19255
 399.2	19352
 399.8	19240
 400.3	19303
 400.8	19354
 401.3	19333
 401.9	19357
 402.4	19381
 402.9	19378
 403.5	19413
 404.0	19419
 404.5	19381
 405.1	19400
 405.6	19509
 406.1	19499
 406.7	19518
 407.2	19547
 407.7	19641
 408.2	19650
 408.8	19671
 409.3	19718
 409.8	19773
 410.4	19755
 410.9	19775
 411.4	19734
 412.0	19816
 412.5	19879
 413.0	19841
 413.6	19898
 414.1	19873
 414.6	19918
 415.2	19969
 415.7	19924
 416.2	19990
 416.8	19986
 417.3	19991
 417.8	20021
 418.4	20123
 418.9	20072
 419.4	20216
 420.0	20118
 420.5	20189
 421.0	20145
 421.5	20247
 422.1	20233
 422.6	20300
 423.1	20335
 423.7	20314
 424.2	20309
 424.7	20354
 425.3	20345
 425.8	20382
 426.3	20371
 426.9	20449
 427.4	20399
 427.9	20518
 428.5	20481
 429.0	20535
 429.6	20511
 430.1	20616
 430.6	20640
 431.2	20613
 431.7	20737
 432.2	20737
 432.8	20741
 433.3	20879
 433.8	20916
 434.4	20921
 434.9	20955
 435.4	21040
 436.0	21049
 436.5	21067
 437.0	21157
 437.6	21159
 438.1	21219
 438.6	21235
 439.2	21277
 439.7	21276
 440.2	21233
 440.8	21265
 441.3	21265
 441.8	21278
 442.4	21246
 442.9	21275
 443.5	21313
 444.0	21311
 444.5	21341
 445.1	21263
 445.6	21313
 446.1	21357
 446.7	21391
 447.2	21427
 447.7	21438
 448.3	21535
 448.8	21531
 449.3	21606
 449.9	21593
 450.4	21731
 450.9	21810
 451.5	21853
 452.0	21875
 452.6	21937
 453.1	22044
 453.6	22091
 454.2	22031
 454.7	22144
 455.2	22205
 455.8	22283
 456.3	22260
 456.8	22407
 457.4	22360
 457.9	22388
 458.5	22448
 459.0	22420
 459.5	22471
 460.1	22432
 460.6	22481
 461.1	22471
 461.7	22527
 462.2	22475
 462.7	22519
 463.3	22455
 463.8	22529
 464.4	22603
 464.9	22562
 465.4	22643
 466.0	22563
 466.5	22655
 467.0	22605
 467.6	22701
 468.1	22807
 468.7	22775
 469.2	22736
 469.7	22862
 470.3	22879
 470.8	22949
 471.3	22955
 471.9	22962
 472.4	23041
 473.0	23114
 473.5	23166
 474.0	23194
 474.6	23235
 475.1	23260
 475.6	23360
 476.2	23399
 476.7	23400
 477.3	23484
 477.8	23451
 478.3	23403
 478.9	23627
 479.4	23549
 479.9	23594
 480.5	23605
 481.0	23667
 481.6	23712
 482.1	23814
 482.6	23827
 483.2	23873
 483.7	24007
 484.2	23985
 484.8	23867
 485.3	23989
 485.9	24097
 486.4	24089
 486.9	24143
 487.5	24131
 488.0	24171
 488.6	24256
 489.1	24291
 489.6	24369
 490.2	24386
 490.7	24370
 491.2	24349
 491.8	24436
 492.3	24391
 492.9	24450
 493.4	24467
 493.9	24493
 494.5	24496
 495.0	24553
 495.6	24479
 496.1	24486
 496.6	24537
 497.2	24455
 497.7	24433
 498.2	24500
 498.8	24518
 499.3	24445
 499.9	24502
 500.4	24509
 500.9	24515
 501.5	24527
 502.0	24630
 502.6	24639
 503.1	24759
 503.6	24761
 504.2	24761
 504.7	24822
 505.2	24936
 505.8	24977
 506.3	25127
 506.9	25202
 507.4	25245
 507.9	25290
 508.5	25390
 509.0	25506
 509.6	25646
 510.1	25679
 510.6	25784
 511.2	25865
 511.7	25921
 512.2	26042
 512.8	26121
 513.3	26140
 513.9	26170
 514.4	26263
 514.9	26371
 515.5	26293
 516.0	26373
 516.6	26334
 517.1	26386
 517.6	26354
 518.2	26318
 518.7	26238
 519.3	26269
 519.8	26269
 520.3	26231
 520.9	26167
 521.4	26147
 521.9	26173
 522.5	26063
 523.0	26049
 523.6	26070
 524.1	25911
 524.6	25947
 525.2	25970
 525.7	26013
 526.3	25962
 526.8	26063
 527.3	26029
 527.9	26077
 528.4	26090
 528.9	26181
 529.5	26234
 530.0	26271
 530.6	26366
 531.1	26431
 531.6	26406
 532.2	26582
 532.7	26613
 533.3	26718
 533.8	26902
 534.3	27021
 534.9	27092
 535.4	27116
 536.0	27255
 536.5	27360
 537.0	27411
 537.6	27491
 538.1	27610
 538.6	27690
 539.2	27685
 539.7	27757
 540.3	27897
 540.8	27907
 541.3	27902
 541.9	27967
 542.4	27990
 543.0	28074
 543.5	28049
 544.0	28041
 544.6	28077
 545.1	28097
 545.6	28123
 546.2	28111
 546.7	28012
 547.3	28073
 547.8	28043
 548.3	28079
 548.9	27980
 549.4	27976
 550.0	27935
 550.5	27993
 551.0	28027
 551.6	27970
 552.1	27979
 552.6	27977
 553.2	27933
 553.7	27917
 554.3	27951
 554.8	28027
 555.3	27897
 555.9	27974
 556.4	27957
 556.9	28075
 557.5	28118
 558.0	28102
 558.6	28111
 559.1	28195
 559.6	28209
 560.2	28254
 560.7	28283
 561.3	28283
 561.8	28289
 562.3	28439
 562.9	28450
 563.4	28519
 563.9	28521
 564.5	28569
 565.0	28575
 565.6	28608
 566.1	28628
 566.6	28638
 567.2	28649
 567.7	28752
 568.2	28698
 568.8	28711
 569.3	28709
 569.9	28772
 570.4	28760
 570.9	28756
 571.5	28756
 572.0	28765
 572.5	28837
 573.1	28801
 573.6	28877
 574.1	28878
 574.7	28902
 575.2	28899
 575.8	28970
 576.3	29063
 576.8	29061
 577.4	29100
 577.9	29153
 578.4	29159
 579.0	29203
 579.5	29343
 580.1	29303
 580.6	29365
 581.1	29479
 581.7	29540
 582.2	29529
 582.7	29604
 583.3	29671
 583.8	29685
 584.3	29675
 584.9	29757
 585.4	29785
 586.0	29803
 586.5	29866
 587.0	29867
 587.6	29957
 588.1	29940
 588.6	30018
 589.2	29979
 589.7	30011
 590.2	30014
 590.8	29998
 591.3	30018
 591.9	29958
 592.4	30004
 592.9	29927
 593.5	29898
 594.0	29869
 594.5	29859
 595.1	29797
 595.6	29743
 596.1	29769
 596.7	29711
 597.2	29711
 597.7	29623
 598.3	29613
 598.8	29559
 599.3	29533
 599.9	29466
 600.4	29433
 601.0	29417
 601.5	29394
 602.0	29363
 602.6	29323
 603.1	29335
 603.6	29332
 604.2	29425
 604.7	29351
 605.2	29425
 605.8	29361
 606.3	29405
 606.8	29483
 607.4	29501
 607.9	29569
 608.4	29543
 609.0	29613
 609.5	29684
 610.0	29695
 610.6	29819
 611.1	29777
 611.6	29864
 612.2	29898
 612.7	29994
 613.2	30040
 613.8	30026
 614.3	30109
 614.8	30196
 615.4	30207
 615.9	30350
 616.4	30469
 617.0	30476
 617.5	30609
 618.0	30707
 618.6	30728
 619.1	30833
 619.6	30967
 620.2	31064
 620.7	31205
 621.2	31257
 621.8	31361
 622.3	31456
 622.8	31502
 623.4	31576
 623.9	31689
 624.4	31710
 625.0	31741
 625.5	31763
 626.0	31791
 626.6	31855
 627.1	31833
 627.6	31794
 628.2	31761
 628.7	31802
 629.2	31780
 629.8	31777
 630.3	31755
 630.8	31715
 631.4	31661
 631.9	31628
 632.4	31483
 632.9	31451
 633.5	31399
 634.0	31314
 634.5	31313
 635.1	31209
 635.6	31165
 636.1	31082
 636.7	31053
 637.2	31009
 637.7	30869
 638.3	30925
 638.8	30869
 639.3	30853
 639.8	30751
 640.4	30742
 640.9	30730
 641.4	30626
 642.0	30582
 642.5	30571
 643.0	30539
 643.6	30612
 644.1	30555
 644.6	30574
 645.1	30576
 645.7	30584
 646.2	30537
 646.7	30563
 647.3	30599
 647.8	30623
 648.3	30599
 648.9	30659
 649.4	30599
 649.9	30684
 650.4	30725
 651.0	30795
 651.5	30834
 652.0	30911
 652.6	30902
 653.1	31010
 653.6	30964
 654.1	31055
 654.7	31067
 655.2	31181
 655.7	31254
 656.3	31295
 656.8	31287
 657.3	31379
 657.8	31366
 658.4	31408
 658.9	31460
 659.4	31542
 659.9	31575
 660.5	31574
 661.0	31643
 661.5	31696
 662.1	31679
 662.6	31704
 663.1	31683
 663.6	31778
 664.2	31732
 664.7	31722
 665.2	31669
 665.7	31777
 666.3	31737
 666.8	31731
 667.3	31730
 667.8	31695
 668.4	31709
 668.9	31710
 669.4	31672
 669.9	31679
 670.5	31606
 671.0	31618
 671.5	31564
 672.0	31587
 672.6	31571
 673.1	31583
 673.6	31491
 674.1	31500
 674.7	31479
 675.2	31504
 675.7	31370
 676.2	31347
 676.8	31398
 677.3	31385
 677.8	31304
 678.3	31379
 678.9	31309
 679.4	31233
 679.9	31278
 680.4	31266
 681.0	31212
 681.5	31236
 682.0	31175
 682.5	31200
 683.1	31098
 683.6	31118
 684.1	31051
 684.6	31141
 685.1	31085
 685.7	31083
 686.2	31060
 686.7	31018
 687.2	31007
 687.8	31061
 688.3	31003
 688.8	31014
 689.3	30961
 689.8	30994
 690.4	30979
 690.9	30991
 691.4	31020
 691.9	31025
 692.4	31002
 693.0	31060
 693.5	31031
 694.0	31028
 694.5	31014
 695.1	31001
 695.6	30966
 696.1	31038
 696.6	31029
 697.1	31047
 697.7	31069
 698.2	31007
 698.7	31032
 699.2	30995
 699.7	30999
 700.3	30953
 700.8	30930
 701.3	31009
 701.8	30969
 702.3	30906
 702.8	30901
 703.4	30889
 703.9	30859
 704.4	30821
 704.9	30774
 705.4	30766
 706.0	30815
 706.5	30785
 707.0	30683
 707.5	30650
 708.0	30659
 708.5	30584
 709.1	30630
 709.6	30579
 710.1	30519
 710.6	30481
 711.1	30445
 711.7	30445
 712.2	30417
 712.7	30425
 713.2	30372
 713.7	30363
 714.2	30311
 714.8	30379
 715.3	30321
 715.8	30307
 716.3	30311
 716.8	30239
 717.3	30219
 717.8	30306
 718.4	30321
 718.9	30266
 719.4	30345
 719.9	30251
 720.4	30298
 720.9	30322
 721.4	30307
 722.0	30342
 722.5	30343
 723.0	30335
 723.5	30353
 724.0	30334
 724.5	30331
 725.0	30371
 725.6	30308
 726.1	30375
 726.6	30481
 727.1	30426
 727.6	30469
 728.1	30499
 728.6	30452
 729.1	30462
 729.7	30443
 730.2	30467
 730.7	30495
 731.2	30531
 731.7	30522
 732.2	30543
 732.7	30513
 733.2	30555
 733.8	30521
 734.3	30558
 734.8	30548
 735.3	30583
 735.8	30587
 736.3	30586
 736.8	30637
 737.3	30693
 737.8	30650
 738.4	30659
 738.9	30623
 739.4	30715
 739.9	30707
 740.4	30733
 740.9	30706
 741.4	30710
 741.9	30705
 742.4	30725
 742.9	30702
 743.4	30764
 744.0	30671
 744.5	30657
 745.0	30655
 745.5	30710
 746.0	30669
 746.5	30674
 747.0	30603
 747.5	30573
 748.0	30539
 748.5	30545
 749.0	30532
 749.5	30589
 750.0	30421
 750.5	30434
 751.1	30415
 751.6	30396
 752.1	30351
 752.6	30293
 753.1	30306
 753.6	30218
 754.1	30167
 754.6	30177
 755.1	30106
 755.6	30081
 756.1	29970
 756.6	30023
 757.1	29969
 757.6	29915
 758.1	29845
 758.6	29809
 759.1	29706
 759.6	29711
 760.1	29619
 760.7	29539
 761.2	29580
 761.7	29516
 762.2	29459
 762.7	29457
 763.2	29317
 763.7	29346
 764.2	29250
 764.7	29205
 765.2	29193
 765.7	29116
 766.2	29043
 766.7	29033
 767.2	28943
 767.7	28903
 768.2	28845
 768.7	28771
 769.2	28725
 769.7	28730
 770.2	28668
 770.7	28644
 771.2	28587
 771.7	28539
 772.2	28522
 772.7	28543
 773.2	28490
 773.7	28414
 774.2	28357
 774.7	28369
 775.2	28321
 775.7	28287
 776.2	28258
 776.7	28267
 777.2	28176
 777.7	28231
 778.2	28189
 778.7	28214
 779.2	28204
 779.7	28218
 780.2	28051
 780.7	28097
 781.2	28088
 781.7	28135
 782.2	28053
 782.6	28114
 783.1	28097
 783.6	28059
 784.1	28003
 784.6	27995
 785.1	27999
 785.6	27986
 786.1	27990
 786.6	28001
 787.1	27937
 787.6	27918
 788.1	27894
 788.6	27879
 789.1	27851
 789.6	27856
 790.1	27859
 790.6	27841
 791.1	27728
 791.6	27709
 792.0	27694
 792.5	27700
 793.0	27657
 793.5	27623
 794.0	27549
 794.5	27598
 795.0	27535
 795.5	27495
 796.0	27464
 796.5	27386
 797.0	27370
 797.5	27371
 798.0	27191
 798.4	27191
 798.9	27135
 799.4	27105
 799.9	27066
 800.4	26894
 800.9	26941
 801.4	26947
 801.9	26857
 802.4	26737
 802.9	26747
 803.3	26692
 803.8	26613
 804.3	26526
 804.8	26529
 805.3	26439
 805.8	26361
 806.3	26314
 806.8	26251
 807.2	26190
 807.7	26118
 808.2	26094
 808.7	25975
 809.2	25932
 809.7	25820
 810.2	25846
 810.7	25739
 811.1	25698
 811.6	25658
 812.1	25566
 812.6	25485
 813.1	25494
 813.6	25463
 814.1	25415
 814.5	25339
 815.0	25311
 815.5	25227
 816.0	25159
 816.5	25177
 817.0	25097
 817.4	25046
 817.9	25045
 818.4	24940
 818.9	24991
 819.4	24918
 819.9	24863
 820.3	24807
 820.8	24773
 821.3	24752
 821.8	24737
 822.3	24650
 822.7	24602
 823.2	24637
 823.7	24573
 824.2	24551
 824.7	24504
 825.2	24494
 825.6	24445
 826.1	24415
 826.6	24450
 827.1	24409
 827.6	24389
 828.0	24316
 828.5	24273
 829.0	24288
 829.5	24216
 829.9	24199
 830.4	24240
 830.9	24202
 831.4	24212
 831.9	24156
 832.3	24211
 832.8	24127
 833.3	24120
 833.8	24183
 834.2	24160
 834.7	24003
 835.2	24077
 835.7	24068
 836.1	24047
 836.6	24015
 837.1	24004
 837.6	24002
 838.0	24022
 838.5	24028
 839.0	24024
 839.5	24003
 839.9	23912
 840.4	23911
 840.9	23868
 841.4	23891
 841.8	23901
 842.3	23897
 842.8	23906
 843.3	23889
 843.7	23776
 844.2	23753
 844.7	23822
 845.1	23787
 845.6	23701
 846.1	23707
 846.6	23727
 847.0	23617
 847.5	23655
 848.0	23620
 848.4	23639
 848.9	23589
 849.4	23552
 849.8	23550
 850.3	23539
 850.8	23566
 851.3	23510
 851.7	23491
 852.2	23478
 852.7	23455
 853.1	23418
 853.6	23351
 854.1	23370
 854.5	23315
 855.0	23283
 855.5	23262
 855.9	23298
 856.4	23265
 856.9	23166
 857.3	23194
 857.8	23142
 858.3	23149
 858.7	23081
 859.2	23087
 859.7	23089
 860.1	23125
 860.6	23085
 861.1	23002
 861.5	23033
 862.0	23011
 862.4	22968
 862.9	22918
 863.4	22939
 863.8	22927
 864.3	22903
 864.8	22811
 865.2	22836
 865.7	22839
 866.1	22832
 866.6	22734
 867.1	22797
 867.5	22764
 868.0	22722
 868.5	22657
 868.9	22638
 869.4	22713
 869.8	22650
 870.3	22587
 870.8	22641
 871.2	22581
 871.7	22559
 872.1	22491
 872.6	22518
 873.0	22478
 873.5	22541
 874.0	22514
 874.4	22402
 874.9	22433
 875.3	22401
 875.8	22315
 876.2	22124
 876.7	21961
 877.2	21581
 877.6	21083
 878.1	20555
