#xlabel Wavelength (nm)
#ylabel Spectrometer Array Counts
#title Exposure time is 10000 ms
## lambda	counts
 349.8	17208
 350.3	17471
 350.8	17727
 351.3	17918
 351.9	18029
 352.4	18152
 352.9	18229
 353.4	18200
 354.0	18209
 354.5	18247
 355.0	18250
 355.5	18261
 356.0	18213
 356.6	18179
 357.1	18223
 357.6	18199
 358.1	18222
 358.7	18159
 359.2	18171
 359.7	18192
 360.2	18219
 360.8	18187
 361.3	18278
 361.8	18230
 362.3	18253
 362.9	18210
 363.4	18281
 363.9	18282
 364.4	18307
 364.9	18215
 365.5	18290
 366.0	18275
 366.5	18227
 367.0	18274
 367.6	18294
 368.1	18291
 368.6	18225
 369.1	18285
 369.7	18332
 370.2	18254
 370.7	18253
 371.2	18291
 371.8	18345
 372.3	18268
 372.8	18345
 373.3	18353
 373.9	18302
 374.4	18312
 374.9	18362
 375.5	18256
 376.0	18373
 376.5	18341
 377.0	18361
 377.6	18308
 378.1	18383
 378.6	18318
 379.1	18322
 379.7	18298
 380.2	18371
 380.7	18371
 381.2	18331
 381.8	18321
 382.3	18360
 382.8	18340
 383.4	18383
 383.9	18336
 384.4	18485
 384.9	18394
 385.5	18415
 386.0	18415
 386.5	18480
 387.1	18414
 387.6	18429
 388.1	18435
 388.6	18450
 389.2	18435
 389.7	18462
 390.2	18435
 390.8	18519
 391.3	18487
 391.8	18483
 392.3	18473
 392.9	18468
 393.4	18463
 393.9	18521
 394.5	18530
 395.0	18477
 395.5	18501
 396.0	18498
 396.6	18470
 397.1	18559
 397.6	18553
 398.2	18558
 398.7	18556
 399.2	18647
 399.8	18515
 400.3	18583
 400.8	18629
 401.3	18598
 401.9	18617
 402.4	18633
 402.9	18618
 403.5	18644
 404.0	18637
 404.5	18586
 405.1	18587
 405.6	18684
 406.1	18656
 406.7	18667
 407.2	18674
 407.7	18751
 408.2	18750
 408.8	18739
 409.3	18771
 409.8	18819
 410.4	18781
 410.9	18788
 411.4	18739
 412.0	18795
 412.5	18847
 413.0	18797
 413.6	18841
 414.1	18801
 414.6	18834
 415.2	18874
 415.7	18811
 416.2	18867
 416.8	18846
 417.3	18831
 417.8	18857
 418.4	18942
 418.9	18871
 419.4	19011
 420.0	18894
 420.5	18962
 421.0	18903
 421.5	18990
 422.1	18965
 422.6	19019
 423.1	19047
 423.7	19013
 424.2	19001
 424.7	19035
 425.3	19014
 425.8	19034
 426.3	19019
 426.9	19072
 427.4	19021
 427.9	19133
 428.5	19071
 429.0	19110
 429.6	19062
 430.1	19155
 430.6	19147
 431.2	19095
 431.7	19190
 432.2	19165
 432.8	19136
 433.3	19250
 433.8	19258
 434.4	19230
 434.9	19247
 435.4	19299
 436.0	19283
 436.5	19275
 437.0	19353
 437.6	19331
 438.1	19383
 438.6	19382
 439.2	19415
 439.7	19395
 440.2	19355
 440.8	19383
 441.3	19381
 441.8	19383
 442.4	19351
 442.9	19382
 443.5	19413
 444.0	19405
 444.5	19435
 445.1	19353
 445.6	19385
 446.1	19407
 446.7	19426
 447.2	19449
 447.7	19435
 448.3	19509
 448.8	19477
 449.3	19519
 449.9	19471
 450.4	19569
 450.9	19615
 451.5	19623
 452.0	19600
 452.6	19625
 453.1	19681
 453.6	19704
 454.2	19604
 454.7	19685
 455.2	19705
 455.8	19756
 456.3	19701
 456.8	19836
 457.4	19763
 457.9	19777
 458.5	19823
 459.0	19788
 459.5	19823
 460.1	19779
 460.6	19829
 461.1	19813
 461.7	19859
 462.2	19809
 462.7	19854
 463.3	19784
 463.8	19850
 464.4	19921
 464.9	19863
 465.4	19928
 466.0	19831
 466.5	19908
 467.0	19843
 467.6	19916
 468.1	19999
 468.7	19942
 469.2	19882
 469.7	19975
 470.3	19965
 470.8	20007
 471.3	19990
 471.9	19955
 472.4	20017
 473.0	20059
 473.5	20081
 474.0	20079
 474.6	20087
 475.1	20089
 475.6	20158
 476.2	20174
 476.7	20157
 477.3	20216
 477.8	20171
 478.3	20108
 478.9	20305
 479.4	20198
 479.9	20220
 480.5	20209
 481.0	20237
 481.6	20267
 482.1	20328
 482.6	20322
 483.2	20336
 483.7	20449
 484.2	20392
 484.8	20243
 485.3	20343
 485.9	20431
 486.4	20398
 486.9	20416
 487.5	20383
 488.0	20400
 488.6	20460
 489.1	20471
 489.6	20531
 490.2	20531
 490.7	20496
 491.2	20469
 491.8	20524
 492.3	20483
 492.9	20533
 493.4	20547
 493.9	20564
 494.5	20564
 495.0	20626
 495.6	20547
 496.1	20557
 496.6	20618
 497.2	20535
 497.7	20497
 498.2	20583
 498.8	20603
 499.3	20518
 499.9	20578
 500.4	20574
 500.9	20559
 501.5	20554
 502.0	20630
 502.6	20613
 503.1	20703
 503.6	20679
 504.2	20644
 504.7	20657
 505.2	20731
 505.8	20733
 506.3	20823
 506.9	20845
 507.4	20829
 507.9	20823
 508.5	20866
 509.0	20922
 509.6	21006
 510.1	20989
 510.6	21043
 511.2	21078
 511.7	21075
 512.2	21156
 512.8	21188
 513.3	21165
 513.9	21161
 514.4	21228
 514.9	21308
 515.5	21213
 516.0	21285
 516.6	21257
 517.1	21308
 517.6	21283
 518.2	21258
 518.7	21189
 519.3	21241
 519.8	21269
 520.3	21262
 520.9	21207
 521.4	21201
 521.9	21255
 522.5	21171
 523.0	21189
 523.6	21219
 524.1	21068
 524.6	21110
 525.2	21144
 525.7	21173
 526.3	21101
 526.8	21196
 527.3	21147
 527.9	21174
 528.4	21161
 528.9	21228
 529.5	21254
 530.0	21245
 530.6	21307
 531.1	21324
 531.6	21252
 532.2	21386
 532.7	21363
 533.3	21412
 533.8	21550
 534.3	21593
 534.9	21610
 535.4	21575
 536.0	21659
 536.5	21719
 537.0	21702
 537.6	21737
 538.1	21805
 538.6	21839
 539.2	21795
 539.7	21822
 540.3	21927
 540.8	21906
 541.3	21873
 541.9	21912
 542.4	21916
 543.0	21985
 543.5	21948
 544.0	21933
 544.6	21975
 545.1	21979
 545.6	22018
 546.2	22001
 546.7	21908
 547.3	21971
 547.8	21948
 548.3	21992
 548.9	21904
 549.4	21905
 550.0	21870
 550.5	21933
 551.0	21973
 551.6	21920
 552.1	21938
 552.6	21937
 553.2	21905
 553.7	21883
 554.3	21924
 554.8	21994
 555.3	21845
 555.9	21923
 556.4	21887
 556.9	21987
 557.5	22019
 558.0	21978
 558.6	21966
 559.1	22039
 559.6	22026
 560.2	22036
 560.7	22042
 561.3	22024
 561.8	22010
 562.3	22130
 562.9	22120
 563.4	22158
 563.9	22153
 564.5	22165
 565.0	22155
 565.6	22184
 566.1	22185
 566.6	22190
 567.2	22184
 567.7	22287
 568.2	22199
 568.8	22214
 569.3	22195
 569.9	22263
 570.4	22248
 570.9	22221
 571.5	22217
 572.0	22212
 572.5	22274
 573.1	22218
 573.6	22281
 574.1	22275
 574.7	22279
 575.2	22253
 575.8	22296
 576.3	22370
 576.8	22342
 577.4	22362
 577.9	22381
 578.4	22355
 579.0	22371
 579.5	22481
 580.1	22412
 580.6	22433
 581.1	22516
 581.7	22545
 582.2	22491
 582.7	22546
 583.3	22595
 583.8	22570
 584.3	22532
 584.9	22598
 585.4	22602
 586.0	22584
 586.5	22626
 587.0	22597
 587.6	22677
 588.1	22628
 588.6	22707
 589.2	22651
 589.7	22669
 590.2	22663
 590.8	22659
 591.3	22685
 591.9	22625
 592.4	22684
 592.9	22616
 593.5	22602
 594.0	22591
 594.5	22598
 595.1	22573
 595.6	22539
 596.1	22591
 596.7	22550
 597.2	22579
 597.7	22512
 598.3	22511
 598.8	22479
 599.3	22480
 599.9	22447
 600.4	22438
 601.0	22432
 601.5	22419
 602.0	22407
 602.6	22359
 603.1	22371
 603.6	22369
 604.2	22469
 604.7	22375
 605.2	22446
 605.8	22366
 606.3	22389
 606.8	22469
 607.4	22453
 607.9	22490
 608.4	22439
 609.0	22483
 609.5	22539
 610.0	22519
 610.6	22622
 611.1	22543
 611.6	22582
 612.2	22591
 612.7	22654
 613.2	22657
 613.8	22605
 614.3	22643
 614.8	22703
 615.4	22651
 615.9	22749
 616.4	22822
 617.0	22779
 617.5	22878
 618.0	22917
 618.6	22862
 619.1	22900
 619.6	22997
 620.2	23011
 620.7	23093
 621.2	23074
 621.8	23125
 622.3	23162
 622.8	23143
 623.4	23185
 623.9	23260
 624.4	23241
 625.0	23247
 625.5	23260
 626.0	23269
 626.6	23319
 627.1	23308
 627.6	23261
 628.2	23227
 628.7	23262
 629.2	23238
 629.8	23265
 630.3	23265
 630.8	23245
 631.4	23219
 631.9	23228
 632.4	23116
 632.9	23117
 633.5	23105
 634.0	23053
 634.5	23123
 635.1	23040
 635.6	23011
 636.1	22981
 636.7	23016
 637.2	23002
 637.7	22895
 638.3	22983
 638.8	22959
 639.3	22968
 639.8	22906
 640.4	22914
 640.9	22925
 641.4	22830
 642.0	22822
 642.5	22831
 643.0	22801
 643.6	22879
 644.1	22835
 644.6	22850
 645.1	22872
 645.7	22863
 646.2	22819
 646.7	22844
 647.3	22871
 647.8	22876
 648.3	22861
 648.9	22890
 649.4	22815
 649.9	22895
 650.4	22897
 651.0	22949
 651.5	22966
 652.0	23021
 652.6	22977
 653.1	23061
 653.6	22979
 654.1	23059
 654.7	23025
 655.2	23117
 655.7	23151
 656.3	23172
 656.8	23131
 657.3	23190
 657.8	23149
 658.4	23151
 658.9	23167
 659.4	23247
 659.9	23242
 660.5	23224
 661.0	23277
 661.5	23317
 662.1	23286
 662.6	23306
 663.1	23267
 663.6	23347
 664.2	23302
 664.7	23274
 665.2	23208
 665.7	23323
 666.3	23287
 666.8	23297
 667.3	23295
 667.8	23263
 668.4	23289
 668.9	23290
 669.4	23264
 669.9	23295
 670.5	23235
 671.0	23246
 671.5	23191
 672.0	23255
 672.6	23251
 673.1	23271
 673.6	23184
 674.1	23215
 674.7	23205
 675.2	23243
 675.7	23106
 676.2	23111
 676.8	23161
 677.3	23177
 677.8	23094
 678.3	23203
 678.9	23133
 679.4	23078
 679.9	23136
 680.4	23138
 681.0	23100
 681.5	23127
 682.0	23099
 682.5	23125
 683.1	23034
 683.6	23077
 684.1	23014
 684.6	23118
 685.1	23056
 685.7	23077
 686.2	23045
 686.7	23004
 687.2	22997
 687.8	23061
 688.3	23003
 688.8	23027
 689.3	22972
 689.8	23003
 690.4	22995
 690.9	23002
 691.4	23005
 691.9	23029
 692.4	22991
 693.0	23059
 693.5	23031
 694.0	23018
 694.5	23007
 695.1	22987
 695.6	22951
 696.1	23019
 696.6	23007
 697.1	23023
 697.7	23056
 698.2	22989
 698.7	23009
 699.2	22977
 699.7	22980
 700.3	22953
 700.8	22935
 701.3	23036
 701.8	22990
 702.3	22940
 702.8	22940
 703.4	22917
 703.9	22925
 704.4	22914
 704.9	22874
 705.4	22878
 706.0	22961
 706.5	22942
 707.0	22857
 707.5	22837
 708.0	22870
 708.5	22815
 709.1	22877
 709.6	22837
 710.1	22799
 710.6	22774
 711.1	22771
 711.7	22790
 712.2	22786
 712.7	22789
 713.2	22763
 713.7	22769
 714.2	22728
 714.8	22806
 715.3	22745
 715.8	22752
 716.3	22761
 716.8	22673
 717.3	22659
 717.8	22763
 718.4	22775
 718.9	22711
 719.4	22792
 719.9	22705
 720.4	22753
 720.9	22759
 721.4	22754
 722.0	22778
 722.5	22763
 723.0	22755
 723.5	22762
 724.0	22732
 724.5	22729
 725.0	22751
 725.6	22681
 726.1	22732
 726.6	22851
 727.1	22784
 727.6	22829
 728.1	22847
 728.6	22802
 729.1	22795
 729.7	22786
 730.2	22810
 730.7	22839
 731.2	22871
 731.7	22860
 732.2	22868
 732.7	22843
 733.2	22887
 733.8	22863
 734.3	22879
 734.8	22853
 735.3	22879
 735.8	22869
 736.3	22845
 736.8	22886
 737.3	22922
 737.8	22879
 738.4	22876
 738.9	22827
 739.4	22913
 739.9	22896
 740.4	22901
 740.9	22893
 741.4	22894
 741.9	22889
 742.4	22902
 742.9	22892
 743.4	22972
 744.0	22882
 744.5	22879
 745.0	22889
 745.5	22963
 746.0	22931
 746.5	22933
 747.0	22879
 747.5	22863
 748.0	22827
 748.5	22848
 749.0	22861
 749.5	22937
 750.0	22774
 750.5	22826
 751.1	22827
 751.6	22820
 752.1	22811
 752.6	22767
 753.1	22796
 753.6	22725
 754.1	22688
 754.6	22734
 755.1	22683
 755.6	22680
 756.1	22596
 756.6	22689
 757.1	22654
 757.6	22627
 758.1	22585
 758.6	22587
 759.1	22512
 759.6	22544
 760.1	22481
 760.7	22444
 761.2	22511
 761.7	22448
 762.2	22431
 762.7	22473
 763.2	22329
 763.7	22405
 764.2	22334
 764.7	22326
 765.2	22354
 765.7	22309
 766.2	22263
 766.7	22300
 767.2	22243
 767.7	22242
 768.2	22210
 768.7	22172
 769.2	22158
 769.7	22197
 770.2	22155
 770.7	22154
 771.2	22123
 771.7	22095
 772.2	22102
 772.7	22141
 773.2	22115
 773.7	22062
 774.2	22013
 774.7	22057
 775.2	22038
 775.7	22012
 776.2	21999
 776.7	22023
 777.2	21944
 777.7	22018
 778.2	21995
 778.7	22030
 779.2	22031
 779.7	22060
 780.2	21898
 780.7	21967
 781.2	21967
 781.7	22033
 782.2	21953
 782.6	22028
 783.1	22025
 783.6	21981
 784.1	21955
 784.6	21943
 785.1	21953
 785.6	21937
 786.1	21967
 786.6	21983
 787.1	21923
 787.6	21927
 788.1	21916
 788.6	21899
 789.1	21895
 789.6	21925
 790.1	21935
 790.6	21929
 791.1	21833
 791.6	21833
 792.0	21851
 792.5	21879
 793.0	21857
 793.5	21845
 794.0	21782
 794.5	21864
 795.0	21837
 795.5	21807
 796.0	21813
 796.5	21753
 797.0	21769
 797.5	21797
 798.0	21655
 798.4	21685
 798.9	21659
 799.4	21675
 799.9	21661
 800.4	21528
 800.9	21613
 801.4	21666
 801.9	21619
 802.4	21538
 802.9	21593
 803.3	21571
 803.8	21533
 804.3	21475
 804.8	21523
 805.3	21468
 805.8	21443
 806.3	21433
 806.8	21403
 807.2	21389
 807.7	21347
 808.2	21365
 808.7	21284
 809.2	21285
 809.7	21203
 810.2	21262
 810.7	21193
 811.1	21199
 811.6	21189
 812.1	21139
 812.6	21091
 813.1	21126
 813.6	21131
 814.1	21108
 814.5	21062
 815.0	21069
 815.5	21027
 816.0	20980
 816.5	21035
 817.0	20976
 817.4	20953
 817.9	20981
 818.4	20907
 818.9	20983
 819.4	20927
 819.9	20902
 820.3	20863
 820.8	20866
 821.3	20859
 821.8	20873
 822.3	20812
 822.7	20781
 823.2	20835
 823.7	20788
 824.2	20784
 824.7	20760
 825.2	20772
 825.6	20747
 826.1	20735
 826.6	20779
 827.1	20757
 827.6	20749
 828.0	20690
 828.5	20657
 829.0	20690
 829.5	20635
 829.9	20638
 830.4	20692
 830.9	20662
 831.4	20689
 831.9	20643
 832.3	20720
 832.8	20656
 833.3	20651
 833.8	20729
 834.2	20718
 834.7	20566
 835.2	20657
 835.7	20652
 836.1	20643
 836.6	20618
 837.1	20624
 837.6	20628
 838.0	20661
 838.5	20684
 839.0	20684
 839.5	20665
 839.9	20581
 840.4	20595
 840.9	20561
 841.4	20600
 841.8	20610
 842.3	20621
 842.8	20643
 843.3	20637
 843.7	20533
 844.2	20522
 844.7	20603
 845.1	20573
 845.6	20489
 846.1	20515
 846.6	20539
 847.0	20442
 847.5	20491
 848.0	20471
 848.4	20506
 848.9	20474
 849.4	20450
 849.8	20467
 850.3	20458
 850.8	20501
 851.3	20461
 851.7	20453
 852.2	20453
 852.7	20445
 853.1	20415
 853.6	20369
 854.1	20398
 854.5	20365
 855.0	20346
 855.5	20333
 855.9	20395
 856.4	20381
 856.9	20291
 857.3	20339
 857.8	20312
 858.3	20351
 858.7	20298
 859.2	20311
 859.7	20304
 860.1	20354
 860.6	20329
 861.1	20268
 861.5	20306
 862.0	20310
 862.4	20281
 862.9	20239
 863.4	20280
 863.8	20275
 864.3	20273
 864.8	20185
 865.2	20235
 865.7	20254
 866.1	20259
 866.6	20175
 867.1	20253
 867.5	20235
 868.0	20197
 868.5	20155
 868.9	20155
 869.4	20249
 869.8	20195
 870.3	20158
 870.8	20219
 871.2	20172
 871.7	20169
 872.1	20121
 872.6	20175
 873.0	20156
 873.5	20235
 874.0	20233
 874.4	20125
 874.9	20162
 875.3	20118
 875.8	20017
 876.2	19814
 876.7	19657
 877.2	19315
 877.6	18889
 878.1	18487
