#xlabel Wavelength (nm)
#ylabel Spectrometer Array Counts
#title Exposure time is 10000 ms
## lambda	counts
 349.8	17325
 350.3	17594
 350.8	17846
 351.3	18047
 351.9	18154
 352.4	18275
 352.9	18345
 353.4	18317
 354.0	18323
 354.5	18362
 355.0	18369
 355.5	18375
 356.0	18342
 356.6	18309
 357.1	18359
 357.6	18335
 358.1	18366
 358.7	18299
 359.2	18321
 359.7	18342
 360.2	18379
 360.8	18345
 361.3	18442
 361.8	18395
 362.3	18423
 362.9	18385
 363.4	18460
 363.9	18460
 364.4	18495
 364.9	18405
 365.5	18482
 366.0	18469
 366.5	18427
 367.0	18472
 367.6	18503
 368.1	18503
 368.6	18439
 369.1	18506
 369.7	18560
 370.2	18482
 370.7	18489
 371.2	18538
 371.8	18593
 372.3	18520
 372.8	18602
 373.3	18621
 373.9	18566
 374.4	18589
 374.9	18640
 375.5	18545
 376.0	18667
 376.5	18642
 377.0	18665
 377.6	18619
 378.1	18701
 378.6	18655
 379.1	18659
 379.7	18647
 380.2	18729
 380.7	18740
 381.2	18702
 381.8	18701
 382.3	18744
 382.8	18732
 383.4	18786
 383.9	18744
 384.4	18894
 384.9	18809
 385.5	18828
 386.0	18841
 386.5	18915
 387.1	18851
 387.6	18876
 388.1	18885
 388.6	18911
 389.2	18902
 389.7	18935
 390.2	18918
 390.8	19021
 391.3	19000
 391.8	19015
 392.3	19012
 392.9	19021
 393.4	19027
 393.9	19113
 394.5	19123
 395.0	19088
 395.5	19117
 396.0	19129
 396.6	19117
 397.1	19215
 397.6	19214
 398.2	19224
 398.7	19232
 399.2	19324
 399.8	19206
 400.3	19276
 400.8	19327
 401.3	19302
 401.9	19325
 402.4	19353
 402.9	19350
 403.5	19393
 404.0	19390
 404.5	19351
 405.1	19368
 405.6	19482
 406.1	19471
 406.7	19490
 407.2	19510
 407.7	19610
 408.2	19620
 408.8	19638
 409.3	19684
 409.8	19747
 410.4	19725
 410.9	19747
 411.4	19710
 412.0	19788
 412.5	19845
 413.0	19813
 413.6	19866
 414.1	19839
 414.6	19885
 415.2	19939
 415.7	19896
 416.2	19956
 416.8	19954
 417.3	19957
 417.8	19990
 418.4	20093
 418.9	20044
 419.4	20185
 420.0	20087
 420.5	20163
 421.0	20116
 421.5	20216
 422.1	20206
 422.6	20272
 423.1	20309
 423.7	20289
 424.2	20279
 424.7	20325
 425.3	20317
 425.8	20349
 426.3	20341
 426.9	20413
 427.4	20365
 427.9	20487
 428.5	20442
 429.0	20500
 429.6	20479
 430.1	20585
 430.6	20602
 431.2	20576
 431.7	20700
 432.2	20702
 432.8	20703
 433.3	20840
 433.8	20877
 434.4	20879
 434.9	20925
 435.4	21000
 436.0	21011
 436.5	21031
 437.0	21121
 437.6	21121
 438.1	21182
 438.6	21201
 439.2	21242
 439.7	21235
 440.2	21196
 440.8	21228
 441.3	21232
 441.8	21242
 442.4	21215
 442.9	21243
 443.5	21282
 444.0	21282
 444.5	21311
 445.1	21233
 445.6	21282
 446.1	21318
 446.7	21349
 447.2	21389
 447.7	21399
 448.3	21499
 448.8	21494
 449.3	21567
 449.9	21556
 450.4	21696
 450.9	21771
 451.5	21821
 452.0	21838
 452.6	21898
 453.1	21999
 453.6	22057
 454.2	21993
 454.7	22106
 455.2	22162
 455.8	22243
 456.3	22223
 456.8	22369
 457.4	22324
 457.9	22351
 458.5	22404
 459.0	22377
 459.5	22426
 460.1	22392
 460.6	22441
 461.1	22433
 461.7	22483
 462.2	22444
 462.7	22480
 463.3	22416
 463.8	22491
 464.4	22565
 464.9	22521
 465.4	22603
 466.0	22527
 466.5	22615
 467.0	22573
 467.6	22659
 468.1	22767
 468.7	22737
 469.2	22699
 469.7	22824
 470.3	22834
 470.8	22907
 471.3	22919
 471.9	22923
 472.4	23005
 473.0	23077
 473.5	23126
 474.0	23154
 474.6	23190
 475.1	23219
 475.6	23315
 476.2	23355
 476.7	23361
 477.3	23439
 477.8	23417
 478.3	23364
 478.9	23585
 479.4	23508
 479.9	23552
 480.5	23567
 481.0	23622
 481.6	23667
 482.1	23769
 482.6	23781
 483.2	23832
 483.7	23967
 484.2	23945
 484.8	23825
 485.3	23948
 485.9	24047
 486.4	24045
 486.9	24096
 487.5	24083
 488.0	24125
 488.6	24209
 489.1	24250
 489.6	24318
 490.2	24340
 490.7	24325
 491.2	24311
 491.8	24384
 492.3	24353
 492.9	24404
 493.4	24427
 493.9	24447
 494.5	24455
 495.0	24506
 495.6	24437
 496.1	24445
 496.6	24490
 497.2	24411
 497.7	24374
 498.2	24464
 498.8	24476
 499.3	24401
 499.9	24457
 500.4	24465
 500.9	24468
 501.5	24482
 502.0	24581
 502.6	24593
 503.1	24707
 503.6	24714
 504.2	24715
 504.7	24780
 505.2	24887
 505.8	24929
 506.3	25079
 506.9	25156
 507.4	25191
 507.9	25243
 508.5	25342
 509.0	25459
 509.6	25599
 510.1	25635
 510.6	25738
 511.2	25819
 511.7	25870
 512.2	25993
 512.8	26073
 513.3	26091
 513.9	26123
 514.4	26211
 514.9	26319
 515.5	26237
 516.0	26320
 516.6	26287
 517.1	26338
 517.6	26305
 518.2	26271
 518.7	26191
 519.3	26219
 519.8	26215
 520.3	26185
 520.9	26124
 521.4	26097
 521.9	26122
 522.5	26019
 523.0	26003
 523.6	26019
 524.1	25869
 524.6	25897
 525.2	25926
 525.7	25965
 526.3	25917
 526.8	26017
 527.3	25981
 527.9	26031
 528.4	26040
 528.9	26132
 529.5	26184
 530.0	26220
 530.6	26318
 531.1	26377
 531.6	26357
 532.2	26530
 532.7	26566
 533.3	26673
 533.8	26850
 534.3	26965
 534.9	27031
 535.4	27063
 536.0	27208
 536.5	27313
 537.0	27351
 537.6	27439
 538.1	27549
 538.6	27633
 539.2	27632
 539.7	27705
 540.3	27837
 540.8	27849
 541.3	27847
 541.9	27912
 542.4	27939
 543.0	28021
 543.5	27999
 544.0	27986
 544.6	28025
 545.1	28046
 545.6	28071
 546.2	28054
 546.7	27962
 547.3	28021
 547.8	27994
 548.3	28026
 548.9	27935
 549.4	27920
 550.0	27883
 550.5	27939
 551.0	27971
 551.6	27918
 552.1	27926
 552.6	27933
 553.2	27881
 553.7	27861
 554.3	27903
 554.8	27977
 555.3	27843
 555.9	27916
 556.4	27907
 556.9	28029
 557.5	28066
 558.0	28051
 558.6	28056
 559.1	28142
 559.6	28155
 560.2	28199
 560.7	28229
 561.3	28230
 561.8	28238
 562.3	28386
 562.9	28391
 563.4	28464
 563.9	28473
 564.5	28511
 565.0	28519
 565.6	28559
 566.1	28579
 566.6	28589
 567.2	28593
 567.7	28696
 568.2	28641
 568.8	28656
 569.3	28647
 569.9	28714
 570.4	28699
 570.9	28695
 571.5	28699
 572.0	28713
 572.5	28778
 573.1	28745
 573.6	28822
 574.1	28822
 574.7	28849
 575.2	28845
 575.8	28912
 576.3	29012
 576.8	29006
 577.4	29046
 577.9	29092
 578.4	29103
 579.0	29146
 579.5	29287
 580.1	29242
 580.6	29307
 581.1	29417
 581.7	29481
 582.2	29473
 582.7	29543
 583.3	29618
 583.8	29627
 584.3	29619
 584.9	29701
 585.4	29727
 586.0	29742
 586.5	29804
 587.0	29807
 587.6	29894
 588.1	29879
 588.6	29955
 589.2	29915
 589.7	29949
 590.2	29949
 590.8	29941
 591.3	29965
 591.9	29905
 592.4	29942
 592.9	29870
 593.5	29841
 594.0	29812
 594.5	29799
 595.1	29741
 595.6	29683
 596.1	29709
 596.7	29649
 597.2	29658
 597.7	29569
 598.3	29558
 598.8	29500
 599.3	29473
 599.9	29414
 600.4	29379
 601.0	29362
 601.5	29343
 602.0	29315
 602.6	29265
 603.1	29281
 603.6	29287
 604.2	29369
 604.7	29301
 605.2	29375
 605.8	29304
 606.3	29351
 606.8	29430
 607.4	29443
 607.9	29517
 608.4	29485
 609.0	29555
 609.5	29623
 610.0	29640
 610.6	29760
 611.1	29721
 611.6	29807
 612.2	29837
 612.7	29935
 613.2	29980
 613.8	29970
 614.3	30052
 614.8	30139
 615.4	30147
 615.9	30293
 616.4	30414
 617.0	30417
 617.5	30553
 618.0	30642
 618.6	30667
 619.1	30773
 619.6	30909
 620.2	31009
 620.7	31149
 621.2	31196
 621.8	31304
 622.3	31394
 622.8	31435
 623.4	31522
 623.9	31626
 624.4	31647
 625.0	31675
 625.5	31697
 626.0	31728
 626.6	31795
 627.1	31775
 627.6	31731
 628.2	31692
 628.7	31742
 629.2	31719
 629.8	31716
 630.3	31698
 630.8	31661
 631.4	31599
 631.9	31572
 632.4	31425
 632.9	31386
 633.5	31343
 634.0	31257
 634.5	31260
 635.1	31150
 635.6	31103
 636.1	31027
 636.7	30999
 637.2	30953
 637.7	30814
 638.3	30866
 638.8	30813
 639.3	30793
 639.8	30693
 640.4	30685
 640.9	30669
 641.4	30568
 642.0	30527
 642.5	30517
 643.0	30479
 643.6	30551
 644.1	30497
 644.6	30521
 645.1	30523
 645.7	30525
 646.2	30481
 646.7	30511
 647.3	30544
 647.8	30567
 648.3	30546
 648.9	30611
 649.4	30545
 649.9	30627
 650.4	30658
 651.0	30736
 651.5	30776
 652.0	30855
 652.6	30841
 653.1	30954
 653.6	30907
 654.1	31002
 654.7	31001
 655.2	31119
 655.7	31191
 656.3	31233
 656.8	31232
 657.3	31316
 657.8	31311
 658.4	31348
 658.9	31399
 659.4	31487
 659.9	31514
 660.5	31510
 661.0	31572
 661.5	31634
 662.1	31616
 662.6	31642
 663.1	31624
 663.6	31713
 664.2	31678
 664.7	31664
 665.2	31606
 665.7	31710
 666.3	31673
 666.8	31663
 667.3	31667
 667.8	31635
 668.4	31647
 668.9	31651
 669.4	31609
 669.9	31620
 670.5	31546
 671.0	31555
 671.5	31498
 672.0	31523
 672.6	31507
 673.1	31529
 673.6	31431
 674.1	31442
 674.7	31419
 675.2	31446
 675.7	31323
 676.2	31293
 676.8	31342
 677.3	31331
 677.8	31246
 678.3	31321
 678.9	31253
 679.4	31173
 679.9	31219
 680.4	31198
 681.0	31157
 681.5	31173
 682.0	31119
 682.5	31144
 683.1	31046
 683.6	31057
 684.1	30997
 684.6	31084
 685.1	31027
 685.7	31031
 686.2	31003
 686.7	30956
 687.2	30954
 687.8	30999
 688.3	30948
 688.8	30960
 689.3	30906
 689.8	30938
 690.4	30917
 690.9	30933
 691.4	30961
 691.9	30962
 692.4	30947
 693.0	31010
 693.5	30973
 694.0	30969
 694.5	30957
 695.1	30941
 695.6	30907
 696.1	30985
 696.6	30965
 697.1	30992
 697.7	31018
 698.2	30957
 698.7	30978
 699.2	30942
 699.7	30943
 700.3	30901
 700.8	30876
 701.3	30956
 701.8	30917
 702.3	30857
 702.8	30843
 703.4	30835
 703.9	30805
 704.4	30767
 704.9	30718
 705.4	30709
 706.0	30755
 706.5	30729
 707.0	30626
 707.5	30597
 708.0	30606
 708.5	30537
 709.1	30577
 709.6	30521
 710.1	30461
 710.6	30427
 711.1	30395
 711.7	30395
 712.2	30370
 712.7	30366
 713.2	30323
 713.7	30312
 714.2	30256
 714.8	30326
 715.3	30264
 715.8	30258
 716.3	30255
 716.8	30182
 717.3	30165
 717.8	30259
 718.4	30261
 718.9	30210
 719.4	30289
 719.9	30195
 720.4	30245
 720.9	30267
 721.4	30259
 722.0	30287
 722.5	30284
 723.0	30287
 723.5	30301
 724.0	30285
 724.5	30276
 725.0	30315
 725.6	30258
 726.1	30321
 726.6	30426
 727.1	30367
 727.6	30417
 728.1	30442
 728.6	30406
 729.1	30401
 729.7	30393
 730.2	30421
 730.7	30444
 731.2	30480
 731.7	30458
 732.2	30483
 732.7	30448
 733.2	30502
 733.8	30471
 734.3	30499
 734.8	30491
 735.3	30531
 735.8	30539
 736.3	30535
 736.8	30587
 737.3	30644
 737.8	30604
 738.4	30612
 738.9	30578
 739.4	30670
 739.9	30647
 740.4	30679
 740.9	30655
 741.4	30663
 741.9	30650
 742.4	30666
 742.9	30653
 743.4	30710
 744.0	30615
 744.5	30603
 745.0	30597
 745.5	30657
 746.0	30616
 746.5	30617
 747.0	30544
 747.5	30511
 748.0	30481
 748.5	30488
 749.0	30474
 749.5	30536
 750.0	30366
 750.5	30384
 751.1	30363
 751.6	30337
 752.1	30293
 752.6	30248
 753.1	30260
 753.6	30174
 754.1	30121
 754.6	30123
 755.1	30051
 755.6	30031
 756.1	29916
 756.6	29975
 757.1	29917
 757.6	29866
 758.1	29793
 758.6	29756
 759.1	29651
 759.6	29653
 760.1	29570
 760.7	29496
 761.2	29538
 761.7	29465
 762.2	29413
 762.7	29413
 763.2	29271
 763.7	29302
 764.2	29202
 764.7	29157
 765.2	29143
 765.7	29069
 766.2	28998
 766.7	28991
 767.2	28893
 767.7	28851
 768.2	28797
 768.7	28723
 769.2	28676
 769.7	28681
 770.2	28625
 770.7	28595
 771.2	28535
 771.7	28492
 772.2	28477
 772.7	28495
 773.2	28441
 773.7	28373
 774.2	28310
 774.7	28325
 775.2	28276
 775.7	28241
 776.2	28211
 776.7	28223
 777.2	28135
 777.7	28186
 778.2	28146
 778.7	28171
 779.2	28161
 779.7	28167
 780.2	28007
 780.7	28061
 781.2	28041
 781.7	28087
 782.2	28015
 782.6	28066
 783.1	28051
 783.6	28011
 784.1	27955
 784.6	27946
 785.1	27951
 785.6	27939
 786.1	27951
 786.6	27956
 787.1	27894
 787.6	27876
 788.1	27851
 788.6	27831
 789.1	27804
 789.6	27807
 790.1	27811
 790.6	27794
 791.1	27679
 791.6	27659
 792.0	27650
 792.5	27660
 793.0	27611
 793.5	27583
 794.0	27500
 794.5	27554
 795.0	27491
 795.5	27455
 796.0	27418
 796.5	27342
 797.0	27326
 797.5	27329
 798.0	27155
 798.4	27145
 798.9	27091
 799.4	27058
 799.9	27020
 800.4	26856
 800.9	26907
 801.4	26905
 801.9	26814
 802.4	26698
 802.9	26707
 803.3	26651
 803.8	26572
 804.3	26483
 804.8	26486
 805.3	26398
 805.8	26326
 806.3	26271
 806.8	26214
 807.2	26157
 807.7	26077
 808.2	26051
 808.7	25938
 809.2	25895
 809.7	25781
 810.2	25802
 810.7	25700
 811.1	25665
 811.6	25614
 812.1	25525
 812.6	25445
 813.1	25447
 813.6	25428
 814.1	25377
 814.5	25296
 815.0	25281
 815.5	25196
 816.0	25123
 816.5	25141
 817.0	25055
 817.4	25009
 817.9	25006
 818.4	24902
 818.9	24950
 819.4	24879
 819.9	24821
 820.3	24767
 820.8	24737
 821.3	24719
 821.8	24696
 822.3	24614
 822.7	24567
 823.2	24605
 823.7	24533
 824.2	24514
 824.7	24465
 825.2	24455
 825.6	24415
 826.1	24383
 826.6	24412
 827.1	24371
 827.6	24351
 828.0	24280
 828.5	24239
 829.0	24249
 829.5	24178
 829.9	24167
 830.4	24206
 830.9	24163
 831.4	24179
 831.9	24116
 832.3	24172
 832.8	24099
 833.3	24090
 833.8	24145
 834.2	24130
 834.7	23967
 835.2	24048
 835.7	24031
 836.1	24013
 836.6	23979
 837.1	23969
 837.6	23969
 838.0	23987
 838.5	23996
 839.0	23987
 839.5	23968
 839.9	23877
 840.4	23875
 840.9	23833
 841.4	23852
 841.8	23869
 842.3	23865
 842.8	23870
 843.3	23858
 843.7	23745
 844.2	23715
 844.7	23787
 845.1	23754
 845.6	23669
 846.1	23675
 846.6	23694
 847.0	23588
 847.5	23620
 848.0	23587
 848.4	23612
 848.9	23558
 849.4	23516
 849.8	23519
 850.3	23500
 850.8	23537
 851.3	23478
 851.7	23451
 852.2	23441
 852.7	23420
 853.1	23385
 853.6	23313
 854.1	23333
 854.5	23285
 855.0	23253
 855.5	23221
 855.9	23263
 856.4	23229
 856.9	23134
 857.3	23163
 857.8	23108
 858.3	23114
 858.7	23046
 859.2	23056
 859.7	23052
 860.1	23091
 860.6	23053
 861.1	22973
 861.5	22993
 862.0	22973
 862.4	22935
 862.9	22885
 863.4	22905
 863.8	22887
 864.3	22866
 864.8	22771
 865.2	22799
 865.7	22804
 866.1	22798
 866.6	22703
 867.1	22759
 867.5	22731
 868.0	22683
 868.5	22620
 868.9	22596
 869.4	22676
 869.8	22620
 870.3	22557
 870.8	22609
 871.2	22554
 871.7	22531
 872.1	22465
 872.6	22496
 873.0	22466
 873.5	22523
 874.0	22495
 874.4	22376
 874.9	22396
 875.3	22335
 875.8	22219
 876.2	21989
 876.7	21804
 877.2	21435
 877.6	20967
 878.1	20490
