#xlabel Wavelength (nm)
#ylabel Spectrometer Array Counts
#title Exposure time is 10000 ms
## lambda	counts
 349.8	17769
 350.3	18012
 350.8	18165
 351.3	18247
 351.9	18252
 352.4	18307
 352.9	18327
 353.4	18271
 354.0	18262
 354.5	18299
 355.0	18305
 355.5	18321
 356.0	18285
 356.6	18260
 357.1	18311
 357.6	18290
 358.1	18322
 358.7	18266
 359.2	18278
 359.7	18294
 360.2	18329
 360.8	18304
 361.3	18400
 361.8	18342
 362.3	18378
 362.9	18331
 363.4	18407
 363.9	18407
 364.4	18439
 364.9	18348
 365.5	18419
 366.0	18406
 366.5	18360
 367.0	18409
 367.6	18439
 368.1	18442
 368.6	18374
 369.1	18441
 369.7	18489
 370.2	18417
 370.7	18422
 371.2	18460
 371.8	18526
 372.3	18453
 372.8	18533
 373.3	18549
 373.9	18500
 374.4	18521
 374.9	18568
 375.5	18469
 376.0	18598
 376.5	18567
 377.0	18597
 377.6	18550
 378.1	18628
 378.6	18574
 379.1	18582
 379.7	18570
 380.2	18653
 380.7	18657
 381.2	18620
 381.8	18617
 382.3	18663
 382.8	18651
 383.4	18704
 383.9	18661
 384.4	18820
 384.9	18737
 385.5	18754
 386.0	18759
 386.5	18837
 387.1	18770
 387.6	18794
 388.1	18808
 388.6	18831
 389.2	18823
 389.7	18858
 390.2	18845
 390.8	18947
 391.3	18923
 391.8	18934
 392.3	18936
 392.9	18940
 393.4	18945
 393.9	19022
 394.5	19040
 395.0	18998
 395.5	19034
 396.0	19042
 396.6	19021
 397.1	19126
 397.6	19125
 398.2	19140
 398.7	19147
 399.2	19243
 399.8	19123
 400.3	19195
 400.8	19247
 401.3	19225
 401.9	19243
 402.4	19274
 402.9	19272
 403.5	19305
 404.0	19301
 404.5	19268
 405.1	19283
 405.6	19393
 406.1	19379
 406.7	19402
 407.2	19424
 407.7	19515
 408.2	19529
 408.8	19540
 409.3	19587
 409.8	19647
 410.4	19622
 410.9	19644
 411.4	19602
 412.0	19677
 412.5	19735
 413.0	19698
 413.6	19759
 414.1	19725
 414.6	19769
 415.2	19826
 415.7	19777
 416.2	19831
 416.8	19833
 417.3	19829
 417.8	19863
 418.4	19966
 418.9	19917
 419.4	20055
 420.0	19954
 420.5	20030
 421.0	19983
 421.5	20082
 422.1	20069
 422.6	20131
 423.1	20169
 423.7	20145
 424.2	20139
 424.7	20185
 425.3	20169
 425.8	20198
 426.3	20191
 426.9	20263
 427.4	20215
 427.9	20333
 428.5	20293
 429.0	20348
 429.6	20323
 430.1	20423
 430.6	20438
 431.2	20403
 431.7	20529
 432.2	20524
 432.8	20525
 433.3	20663
 433.8	20691
 434.4	20694
 434.9	20726
 435.4	20811
 436.0	20812
 436.5	20825
 437.0	20917
 437.6	20915
 438.1	20979
 438.6	20999
 439.2	21037
 439.7	21030
 440.2	20983
 440.8	21014
 441.3	21020
 441.8	21025
 442.4	20998
 442.9	21026
 443.5	21059
 444.0	21065
 444.5	21096
 445.1	21015
 445.6	21060
 446.1	21093
 446.7	21133
 447.2	21167
 447.7	21172
 448.3	21266
 448.8	21261
 449.3	21326
 449.9	21306
 450.4	21444
 450.9	21524
 451.5	21559
 452.0	21571
 452.6	21631
 453.1	21728
 453.6	21775
 454.2	21709
 454.7	21817
 455.2	21867
 455.8	21947
 456.3	21917
 456.8	22065
 457.4	22017
 457.9	22039
 458.5	22091
 459.0	22070
 459.5	22117
 460.1	22077
 460.6	22129
 461.1	22119
 461.7	22167
 462.2	22122
 462.7	22160
 463.3	22095
 463.8	22169
 464.4	22243
 464.9	22197
 465.4	22277
 466.0	22195
 466.5	22280
 467.0	22239
 467.6	22324
 468.1	22427
 468.7	22392
 469.2	22354
 469.7	22471
 470.3	22482
 470.8	22544
 471.3	22555
 471.9	22550
 472.4	22635
 473.0	22700
 473.5	22749
 474.0	22775
 474.6	22806
 475.1	22823
 475.6	22923
 476.2	22957
 476.7	22955
 477.3	23036
 477.8	22996
 478.3	22950
 478.9	23169
 479.4	23091
 479.9	23127
 480.5	23140
 481.0	23188
 481.6	23238
 482.1	23333
 482.6	23345
 483.2	23391
 483.7	23517
 484.2	23495
 484.8	23363
 485.3	23479
 485.9	23582
 486.4	23574
 486.9	23622
 487.5	23607
 488.0	23645
 488.6	23726
 489.1	23763
 489.6	23833
 490.2	23855
 490.7	23831
 491.2	23808
 491.8	23874
 492.3	23849
 492.9	23899
 493.4	23923
 493.9	23943
 494.5	23948
 495.0	24005
 495.6	23930
 496.1	23937
 496.6	23986
 497.2	23902
 497.7	23874
 498.2	23948
 498.8	23965
 499.3	23887
 499.9	23943
 500.4	23947
 500.9	23943
 501.5	23961
 502.0	24060
 502.6	24066
 503.1	24177
 503.6	24180
 504.2	24174
 504.7	24227
 505.2	24331
 505.8	24363
 506.3	24513
 506.9	24579
 507.4	24606
 507.9	24647
 508.5	24737
 509.0	24845
 509.6	24978
 510.1	25007
 510.6	25097
 511.2	25173
 511.7	25226
 512.2	25334
 512.8	25409
 513.3	25419
 513.9	25443
 514.4	25527
 514.9	25635
 515.5	25547
 516.0	25634
 516.6	25597
 517.1	25641
 517.6	25612
 518.2	25581
 518.7	25496
 519.3	25531
 519.8	25541
 520.3	25509
 520.9	25451
 521.4	25425
 521.9	25452
 522.5	25345
 523.0	25333
 523.6	25354
 524.1	25199
 524.6	25231
 525.2	25255
 525.7	25301
 526.3	25236
 526.8	25343
 527.3	25308
 527.9	25353
 528.4	25365
 528.9	25453
 529.5	25495
 530.0	25532
 530.6	25617
 531.1	25668
 531.6	25636
 532.2	25805
 532.7	25827
 533.3	25929
 533.8	26105
 534.3	26209
 534.9	26270
 535.4	26290
 536.0	26420
 536.5	26519
 537.0	26553
 537.6	26626
 538.1	26739
 538.6	26806
 539.2	26797
 539.7	26864
 540.3	26991
 540.8	26999
 541.3	26995
 541.9	27052
 542.4	27075
 543.0	27152
 543.5	27127
 544.0	27117
 544.6	27147
 545.1	27176
 545.6	27198
 546.2	27185
 546.7	27087
 547.3	27149
 547.8	27117
 548.3	27149
 548.9	27052
 549.4	27048
 550.0	27013
 550.5	27075
 551.0	27097
 551.6	27047
 552.1	27057
 552.6	27061
 553.2	27015
 553.7	26990
 554.3	27032
 554.8	27099
 555.3	26973
 555.9	27042
 556.4	27031
 556.9	27148
 557.5	27191
 558.0	27171
 558.6	27167
 559.1	27260
 559.6	27265
 560.2	27299
 560.7	27327
 561.3	27326
 561.8	27329
 562.3	27473
 562.9	27474
 563.4	27545
 563.9	27550
 564.5	27583
 565.0	27594
 565.6	27631
 566.1	27640
 566.6	27658
 567.2	27661
 567.7	27764
 568.2	27703
 568.8	27710
 569.3	27699
 569.9	27766
 570.4	27751
 570.9	27742
 571.5	27744
 572.0	27754
 572.5	27817
 573.1	27778
 573.6	27857
 574.1	27856
 574.7	27872
 575.2	27873
 575.8	27934
 576.3	28035
 576.8	28022
 577.4	28057
 577.9	28105
 578.4	28104
 579.0	28139
 579.5	28283
 580.1	28236
 580.6	28293
 581.1	28399
 581.7	28459
 582.2	28440
 582.7	28508
 583.3	28574
 583.8	28583
 584.3	28564
 584.9	28641
 585.4	28668
 586.0	28680
 586.5	28733
 587.0	28734
 587.6	28828
 588.1	28799
 588.6	28881
 589.2	28835
 589.7	28868
 590.2	28865
 590.8	28855
 591.3	28877
 591.9	28815
 592.4	28858
 592.9	28781
 593.5	28759
 594.0	28731
 594.5	28724
 595.1	28673
 595.6	28615
 596.1	28647
 596.7	28589
 597.2	28596
 597.7	28519
 598.3	28507
 598.8	28455
 599.3	28431
 599.9	28365
 600.4	28341
 601.0	28325
 601.5	28307
 602.0	28277
 602.6	28232
 603.1	28246
 603.6	28244
 604.2	28335
 604.7	28267
 605.2	28337
 605.8	28267
 606.3	28311
 606.8	28391
 607.4	28400
 607.9	28468
 608.4	28437
 609.0	28496
 609.5	28567
 610.0	28572
 610.6	28689
 611.1	28652
 611.6	28724
 612.2	28765
 612.7	28850
 613.2	28884
 613.8	28866
 614.3	28942
 614.8	29029
 615.4	29031
 615.9	29166
 616.4	29276
 617.0	29273
 617.5	29407
 618.0	29487
 618.6	29498
 619.1	29598
 619.6	29721
 620.2	29815
 620.7	29947
 621.2	29987
 621.8	30074
 622.3	30165
 622.8	30195
 623.4	30277
 623.9	30373
 624.4	30389
 625.0	30422
 625.5	30433
 626.0	30461
 626.6	30525
 627.1	30506
 627.6	30462
 628.2	30431
 628.7	30475
 629.2	30449
 629.8	30462
 630.3	30437
 630.8	30401
 631.4	30343
 631.9	30322
 632.4	30179
 632.9	30149
 633.5	30105
 634.0	30034
 634.5	30043
 635.1	29942
 635.6	29891
 636.1	29822
 636.7	29806
 637.2	29762
 637.7	29627
 638.3	29689
 638.8	29641
 639.3	29627
 639.8	29532
 640.4	29522
 640.9	29523
 641.4	29413
 642.0	29371
 642.5	29375
 643.0	29335
 643.6	29409
 644.1	29357
 644.6	29371
 645.1	29383
 645.7	29386
 646.2	29339
 646.7	29372
 647.3	29391
 647.8	29422
 648.3	29391
 648.9	29454
 649.4	29384
 649.9	29469
 650.4	29509
 651.0	29580
 651.5	29621
 652.0	29686
 652.6	29679
 653.1	29781
 653.6	29733
 654.1	29820
 654.7	29823
 655.2	29933
 655.7	29996
 656.3	30037
 656.8	30027
 657.3	30107
 657.8	30094
 658.4	30127
 658.9	30167
 659.4	30261
 659.9	30285
 660.5	30282
 661.0	30345
 661.5	30395
 662.1	30375
 662.6	30399
 663.1	30377
 663.6	30469
 664.2	30422
 664.7	30411
 665.2	30351
 665.7	30460
 666.3	30428
 666.8	30420
 667.3	30425
 667.8	30387
 668.4	30399
 668.9	30399
 669.4	30365
 669.9	30374
 670.5	30303
 671.0	30315
 671.5	30257
 672.0	30289
 672.6	30277
 673.1	30298
 673.6	30202
 674.1	30213
 674.7	30186
 675.2	30221
 675.7	30084
 676.2	30064
 676.8	30115
 677.3	30110
 677.8	30033
 678.3	30111
 678.9	30037
 679.4	29963
 679.9	30015
 680.4	29999
 681.0	29950
 681.5	29968
 682.0	29916
 682.5	29943
 683.1	29846
 683.6	29864
 684.1	29804
 684.6	29891
 685.1	29837
 685.7	29843
 686.2	29815
 686.7	29767
 687.2	29757
 687.8	29813
 688.3	29759
 688.8	29768
 689.3	29715
 689.8	29748
 690.4	29737
 690.9	29747
 691.4	29768
 691.9	29770
 692.4	29751
 693.0	29810
 693.5	29779
 694.0	29779
 694.5	29767
 695.1	29749
 695.6	29715
 696.1	29783
 696.6	29773
 697.1	29795
 697.7	29827
 698.2	29757
 698.7	29779
 699.2	29735
 699.7	29739
 700.3	29705
 700.8	29677
 701.3	29759
 701.8	29715
 702.3	29657
 702.8	29653
 703.4	29643
 703.9	29609
 704.4	29575
 704.9	29531
 705.4	29525
 706.0	29577
 706.5	29544
 707.0	29453
 707.5	29419
 708.0	29429
 708.5	29358
 709.1	29405
 709.6	29351
 710.1	29291
 710.6	29256
 711.1	29228
 711.7	29237
 712.2	29210
 712.7	29212
 713.2	29167
 713.7	29157
 714.2	29102
 714.8	29181
 715.3	29123
 715.8	29109
 716.3	29115
 716.8	29038
 717.3	29022
 717.8	29120
 718.4	29131
 718.9	29077
 719.4	29154
 719.9	29064
 720.4	29111
 720.9	29135
 721.4	29123
 722.0	29159
 722.5	29147
 723.0	29143
 723.5	29165
 724.0	29140
 724.5	29130
 725.0	29160
 725.6	29111
 726.1	29169
 726.6	29280
 727.1	29231
 727.6	29270
 728.1	29298
 728.6	29255
 729.1	29244
 729.7	29234
 730.2	29263
 730.7	29285
 731.2	29323
 731.7	29311
 732.2	29335
 732.7	29302
 733.2	29339
 733.8	29314
 734.3	29341
 734.8	29331
 735.3	29363
 735.8	29366
 736.3	29358
 736.8	29412
 737.3	29473
 737.8	29425
 738.4	29422
 738.9	29390
 739.4	29485
 739.9	29465
 740.4	29495
 740.9	29470
 741.4	29477
 741.9	29465
 742.4	29486
 742.9	29465
 743.4	29527
 744.0	29438
 744.5	29421
 745.0	29424
 745.5	29485
 746.0	29452
 746.5	29450
 747.0	29372
 747.5	29343
 748.0	29315
 748.5	29318
 749.0	29311
 749.5	29374
 750.0	29208
 750.5	29231
 751.1	29210
 751.6	29191
 752.1	29153
 752.6	29101
 753.1	29119
 753.6	29034
 754.1	28979
 754.6	28991
 755.1	28919
 755.6	28903
 756.1	28798
 756.6	28861
 757.1	28804
 757.6	28758
 758.1	28687
 758.6	28660
 759.1	28564
 759.6	28566
 760.1	28485
 760.7	28415
 761.2	28463
 761.7	28392
 762.2	28343
 762.7	28341
 763.2	28210
 763.7	28248
 764.2	28145
 764.7	28114
 765.2	28105
 765.7	28036
 766.2	27969
 766.7	27966
 767.2	27875
 767.7	27843
 768.2	27792
 768.7	27717
 769.2	27681
 769.7	27691
 770.2	27638
 770.7	27613
 771.2	27560
 771.7	27519
 772.2	27501
 772.7	27526
 773.2	27483
 773.7	27413
 774.2	27346
 774.7	27363
 775.2	27323
 775.7	27293
 776.2	27263
 776.7	27271
 777.2	27189
 777.7	27241
 778.2	27207
 778.7	27227
 779.2	27223
 779.7	27239
 780.2	27075
 780.7	27128
 781.2	27115
 781.7	27157
 782.2	27088
 782.6	27145
 783.1	27134
 783.6	27083
 784.1	27042
 784.6	27030
 785.1	27036
 785.6	27019
 786.1	27028
 786.6	27041
 787.1	26979
 787.6	26961
 788.1	26942
 788.6	26925
 789.1	26900
 789.6	26913
 790.1	26911
 790.6	26897
 791.1	26786
 791.6	26768
 792.0	26758
 792.5	26769
 793.0	26727
 793.5	26704
 794.0	26620
 794.5	26678
 795.0	26625
 795.5	26585
 796.0	26561
 796.5	26487
 797.0	26474
 797.5	26482
 798.0	26310
 798.4	26306
 798.9	26256
 799.4	26237
 799.9	26201
 800.4	26034
 800.9	26095
 801.4	26101
 801.9	26021
 802.4	25910
 802.9	25927
 803.3	25876
 803.8	25808
 804.3	25717
 804.8	25730
 805.3	25643
 805.8	25578
 806.3	25535
 806.8	25479
 807.2	25429
 807.7	25359
 808.2	25338
 808.7	25231
 809.2	25190
 809.7	25083
 810.2	25105
 810.7	25013
 811.1	24982
 811.6	24941
 812.1	24857
 812.6	24786
 813.1	24794
 813.6	24774
 814.1	24727
 814.5	24652
 815.0	24639
 815.5	24558
 816.0	24495
 816.5	24519
 817.0	24438
 817.4	24394
 817.9	24399
 818.4	24296
 818.9	24350
 819.4	24278
 819.9	24235
 820.3	24181
 820.8	24152
 821.3	24135
 821.8	24121
 822.3	24033
 822.7	23994
 823.2	24035
 823.7	23965
 824.2	23949
 824.7	23909
 825.2	23896
 825.6	23855
 826.1	23837
 826.6	23867
 827.1	23828
 827.6	23815
 828.0	23740
 828.5	23694
 829.0	23711
 829.5	23642
 829.9	23630
 830.4	23677
 830.9	23639
 831.4	23649
 831.9	23598
 832.3	23653
 832.8	23580
 833.3	23575
 833.8	23641
 834.2	23617
 834.7	23455
 835.2	23533
 835.7	23519
 836.1	23503
 836.6	23469
 837.1	23467
 837.6	23459
 838.0	23490
 838.5	23502
 839.0	23492
 839.5	23470
 839.9	23382
 840.4	23383
 840.9	23337
 841.4	23364
 841.8	23380
 842.3	23377
 842.8	23386
 843.3	23373
 843.7	23252
 844.2	23232
 844.7	23305
 845.1	23267
 845.6	23182
 846.1	23195
 846.6	23220
 847.0	23109
 847.5	23149
 848.0	23117
 848.4	23135
 848.9	23087
 849.4	23053
 849.8	23051
 850.3	23044
 850.8	23069
 851.3	23019
 851.7	22999
 852.2	22981
 852.7	22966
 853.1	22923
 853.6	22856
 854.1	22874
 854.5	22827
 855.0	22799
 855.5	22773
 855.9	22817
 856.4	22783
 856.9	22681
 857.3	22716
 857.8	22660
 858.3	22671
 858.7	22607
 859.2	22611
 859.7	22608
 860.1	22651
 860.6	22607
 861.1	22529
 861.5	22549
 862.0	22529
 862.4	22487
 862.9	22438
 863.4	22465
 863.8	22449
 864.3	22427
 864.8	22330
 865.2	22362
 865.7	22370
 866.1	22363
 866.6	22269
 867.1	22339
 867.5	22310
 868.0	22267
 868.5	22205
 868.9	22191
 869.4	22276
 869.8	22214
 870.3	22164
 870.8	22215
 871.2	22154
 871.7	22126
 872.1	22058
 872.6	22087
 873.0	22044
 873.5	22102
 874.0	22077
 874.4	21966
 874.9	22019
 875.3	22015
 875.8	21994
 876.2	21902
 876.7	21901
 877.2	21714
 877.6	21346
 878.1	20712
