#xlabel Wavelength (nm)
#ylabel Spectrometer Array Counts
#title Exposure time is 10000 ms
## lambda	counts
 349.8	17256
 350.3	17511
 350.8	17762
 351.3	17951
 351.9	18059
 352.4	18184
 352.9	18258
 353.4	18229
 354.0	18236
 354.5	18281
 355.0	18286
 355.5	18297
 356.0	18257
 356.6	18228
 357.1	18274
 357.6	18251
 358.1	18275
 358.7	18216
 359.2	18228
 359.7	18244
 360.2	18279
 360.8	18251
 361.3	18339
 361.8	18289
 362.3	18319
 362.9	18273
 363.4	18353
 363.9	18350
 364.4	18381
 364.9	18289
 365.5	18363
 366.0	18351
 366.5	18309
 367.0	18355
 367.6	18383
 368.1	18380
 368.6	18321
 369.1	18384
 369.7	18437
 370.2	18362
 370.7	18365
 371.2	18407
 371.8	18466
 372.3	18395
 372.8	18474
 373.3	18490
 373.9	18441
 374.4	18463
 374.9	18509
 375.5	18414
 376.0	18541
 376.5	18507
 377.0	18536
 377.6	18491
 378.1	18573
 378.6	18523
 379.1	18527
 379.7	18514
 380.2	18593
 380.7	18603
 381.2	18565
 381.8	18562
 382.3	18609
 382.8	18593
 383.4	18646
 383.9	18602
 384.4	18752
 384.9	18677
 385.5	18694
 386.0	18701
 386.5	18781
 387.1	18713
 387.6	18743
 388.1	18750
 388.6	18776
 389.2	18769
 389.7	18799
 390.2	18786
 390.8	18883
 391.3	18863
 391.8	18871
 392.3	18869
 392.9	18876
 393.4	18881
 393.9	18960
 394.5	18977
 395.0	18939
 395.5	18975
 396.0	18981
 396.6	18959
 397.1	19061
 397.6	19065
 398.2	19075
 398.7	19079
 399.2	19179
 399.8	19064
 400.3	19135
 400.8	19180
 401.3	19159
 401.9	19181
 402.4	19210
 402.9	19209
 403.5	19243
 404.0	19240
 404.5	19205
 405.1	19218
 405.6	19324
 406.1	19318
 406.7	19339
 407.2	19361
 407.7	19453
 408.2	19463
 408.8	19479
 409.3	19517
 409.8	19575
 410.4	19559
 410.9	19575
 411.4	19539
 412.0	19614
 412.5	19674
 413.0	19636
 413.6	19687
 414.1	19658
 414.6	19706
 415.2	19759
 415.7	19705
 416.2	19774
 416.8	19763
 417.3	19763
 417.8	19795
 418.4	19893
 418.9	19847
 419.4	19986
 420.0	19883
 420.5	19963
 421.0	19915
 421.5	20009
 422.1	19991
 422.6	20059
 423.1	20101
 423.7	20078
 424.2	20067
 424.7	20113
 425.3	20103
 425.8	20133
 426.3	20130
 426.9	20195
 427.4	20149
 427.9	20269
 428.5	20220
 429.0	20278
 429.6	20253
 430.1	20349
 430.6	20370
 431.2	20340
 431.7	20461
 432.2	20457
 432.8	20459
 433.3	20590
 433.8	20621
 434.4	20617
 434.9	20654
 435.4	20735
 436.0	20736
 436.5	20753
 437.0	20846
 437.6	20839
 438.1	20901
 438.6	20915
 439.2	20955
 439.7	20949
 440.2	20901
 440.8	20938
 441.3	20945
 441.8	20951
 442.4	20926
 442.9	20954
 443.5	20990
 444.0	20990
 444.5	21017
 445.1	20939
 445.6	20985
 446.1	21025
 446.7	21053
 447.2	21092
 447.7	21099
 448.3	21192
 448.8	21185
 449.3	21254
 449.9	21231
 450.4	21371
 450.9	21442
 451.5	21480
 452.0	21494
 452.6	21552
 453.1	21645
 453.6	21690
 454.2	21629
 454.7	21737
 455.2	21793
 455.8	21861
 456.3	21835
 456.8	21977
 457.4	21933
 457.9	21959
 458.5	22013
 459.0	21983
 459.5	22034
 460.1	21990
 460.6	22046
 461.1	22032
 461.7	22081
 462.2	22039
 462.7	22081
 463.3	22011
 463.8	22087
 464.4	22159
 464.9	22113
 465.4	22190
 466.0	22118
 466.5	22198
 467.0	22155
 467.6	22241
 468.1	22348
 468.7	22312
 469.2	22271
 469.7	22387
 470.3	22398
 470.8	22463
 471.3	22472
 471.9	22472
 472.4	22549
 473.0	22615
 473.5	22666
 474.0	22684
 474.6	22723
 475.1	22739
 475.6	22833
 476.2	22867
 476.7	22866
 477.3	22948
 477.8	22917
 478.3	22864
 478.9	23089
 479.4	23007
 479.9	23039
 480.5	23056
 481.0	23105
 481.6	23154
 482.1	23244
 482.6	23255
 483.2	23290
 483.7	23427
 484.2	23395
 484.8	23276
 485.3	23395
 485.9	23491
 486.4	23483
 486.9	23535
 487.5	23521
 488.0	23556
 488.6	23629
 489.1	23668
 489.6	23735
 490.2	23752
 490.7	23736
 491.2	23717
 491.8	23792
 492.3	23754
 492.9	23812
 493.4	23829
 493.9	23849
 494.5	23846
 495.0	23914
 495.6	23834
 496.1	23839
 496.6	23896
 497.2	23814
 497.7	23778
 498.2	23862
 498.8	23874
 499.3	23800
 499.9	23855
 500.4	23867
 500.9	23859
 501.5	23870
 502.0	23970
 502.6	23973
 503.1	24088
 503.6	24087
 504.2	24083
 504.7	24138
 505.2	24242
 505.8	24282
 506.3	24419
 506.9	24484
 507.4	24518
 507.9	24546
 508.5	24647
 509.0	24750
 509.6	24885
 510.1	24905
 510.6	25001
 511.2	25073
 511.7	25126
 512.2	25234
 512.8	25305
 513.3	25315
 513.9	25341
 514.4	25429
 514.9	25531
 515.5	25450
 516.0	25529
 516.6	25494
 517.1	25538
 517.6	25514
 518.2	25477
 518.7	25399
 519.3	25435
 519.8	25439
 520.3	25404
 520.9	25341
 521.4	25319
 521.9	25351
 522.5	25243
 523.0	25235
 523.6	25261
 524.1	25105
 524.6	25142
 525.2	25162
 525.7	25205
 526.3	25147
 526.8	25246
 527.3	25213
 527.9	25255
 528.4	25265
 528.9	25353
 529.5	25398
 530.0	25429
 530.6	25517
 531.1	25570
 531.6	25541
 532.2	25707
 532.7	25730
 533.3	25825
 533.8	25998
 534.3	26104
 534.9	26165
 535.4	26182
 536.0	26316
 536.5	26413
 537.0	26445
 537.6	26522
 538.1	26627
 538.6	26701
 539.2	26691
 539.7	26758
 540.3	26886
 540.8	26896
 541.3	26881
 541.9	26944
 542.4	26967
 543.0	27041
 543.5	27017
 544.0	27003
 544.6	27038
 545.1	27063
 545.6	27091
 546.2	27073
 546.7	26973
 547.3	27039
 547.8	27009
 548.3	27044
 548.9	26953
 549.4	26945
 550.0	26907
 550.5	26964
 551.0	26995
 551.6	26941
 552.1	26952
 552.6	26952
 553.2	26911
 553.7	26892
 554.3	26931
 554.8	27001
 555.3	26867
 555.9	26938
 556.4	26927
 556.9	27036
 557.5	27079
 558.0	27062
 558.6	27061
 559.1	27149
 559.6	27155
 560.2	27191
 560.7	27217
 561.3	27216
 561.8	27226
 562.3	27359
 562.9	27370
 563.4	27437
 563.9	27439
 564.5	27473
 565.0	27479
 565.6	27519
 566.1	27534
 566.6	27545
 567.2	27546
 567.7	27648
 568.2	27590
 568.8	27601
 569.3	27590
 569.9	27655
 570.4	27645
 570.9	27634
 571.5	27637
 572.0	27643
 572.5	27711
 573.1	27676
 573.6	27749
 574.1	27749
 574.7	27765
 575.2	27760
 575.8	27826
 576.3	27920
 576.8	27911
 577.4	27946
 577.9	27993
 578.4	27998
 579.0	28030
 579.5	28175
 580.1	28125
 580.6	28174
 581.1	28284
 581.7	28342
 582.2	28327
 582.7	28391
 583.3	28461
 583.8	28469
 584.3	28449
 584.9	28535
 585.4	28555
 586.0	28569
 586.5	28622
 587.0	28617
 587.6	28713
 588.1	28685
 588.6	28763
 589.2	28715
 589.7	28750
 590.2	28751
 590.8	28739
 591.3	28762
 591.9	28701
 592.4	28747
 592.9	28665
 593.5	28642
 594.0	28619
 594.5	28610
 595.1	28559
 595.6	28507
 596.1	28532
 596.7	28477
 597.2	28483
 597.7	28403
 598.3	28390
 598.8	28345
 599.3	28326
 599.9	28259
 600.4	28231
 601.0	28219
 601.5	28199
 602.0	28175
 602.6	28129
 603.1	28141
 603.6	28141
 604.2	28229
 604.7	28153
 605.2	28230
 605.8	28161
 606.3	28203
 606.8	28282
 607.4	28292
 607.9	28352
 608.4	28332
 609.0	28389
 609.5	28459
 610.0	28465
 610.6	28584
 611.1	28540
 611.6	28619
 612.2	28653
 612.7	28738
 613.2	28779
 613.8	28757
 614.3	28837
 614.8	28919
 615.4	28919
 615.9	29057
 616.4	29165
 617.0	29169
 617.5	29303
 618.0	29379
 618.6	29382
 619.1	29485
 619.6	29613
 620.2	29697
 620.7	29837
 621.2	29867
 621.8	29957
 622.3	30050
 622.8	30082
 623.4	30158
 623.9	30257
 624.4	30275
 625.0	30297
 625.5	30311
 626.0	30346
 626.6	30403
 627.1	30385
 627.6	30346
 628.2	30311
 628.7	30351
 629.2	30329
 629.8	30338
 630.3	30319
 630.8	30282
 631.4	30227
 631.9	30209
 632.4	30063
 632.9	30035
 633.5	29994
 634.0	29911
 634.5	29926
 635.1	29830
 635.6	29777
 636.1	29714
 636.7	29697
 637.2	29660
 637.7	29520
 638.3	29581
 638.8	29527
 639.3	29510
 639.8	29421
 640.4	29409
 640.9	29409
 641.4	29302
 642.0	29258
 642.5	29259
 643.0	29227
 643.6	29309
 644.1	29247
 644.6	29265
 645.1	29269
 645.7	29275
 646.2	29229
 646.7	29263
 647.3	29290
 647.8	29315
 648.3	29297
 648.9	29349
 649.4	29282
 649.9	29364
 650.4	29399
 651.0	29474
 651.5	29504
 652.0	29580
 652.6	29564
 653.1	29669
 653.6	29616
 654.1	29706
 654.7	29703
 655.2	29821
 655.7	29881
 656.3	29924
 656.8	29909
 657.3	29990
 657.8	29979
 658.4	30013
 658.9	30060
 659.4	30145
 659.9	30165
 660.5	30163
 661.0	30227
 661.5	30277
 662.1	30261
 662.6	30285
 663.1	30262
 663.6	30355
 664.2	30311
 664.7	30294
 665.2	30235
 665.7	30346
 666.3	30313
 666.8	30307
 667.3	30305
 667.8	30269
 668.4	30282
 668.9	30276
 669.4	30252
 669.9	30263
 670.5	30195
 671.0	30205
 671.5	30143
 672.0	30175
 672.6	30162
 673.1	30183
 673.6	30084
 674.1	30097
 674.7	30078
 675.2	30107
 675.7	29976
 676.2	29958
 676.8	30003
 677.3	29993
 677.8	29919
 678.3	29998
 678.9	29923
 679.4	29847
 679.9	29901
 680.4	29889
 681.0	29838
 681.5	29858
 682.0	29807
 682.5	29829
 683.1	29732
 683.6	29753
 684.1	29698
 684.6	29781
 685.1	29723
 685.7	29725
 686.2	29699
 686.7	29654
 687.2	29645
 687.8	29704
 688.3	29653
 688.8	29666
 689.3	29603
 689.8	29633
 690.4	29627
 690.9	29638
 691.4	29662
 691.9	29663
 692.4	29643
 693.0	29707
 693.5	29671
 694.0	29666
 694.5	29660
 695.1	29644
 695.6	29603
 696.1	29679
 696.6	29666
 697.1	29685
 697.7	29717
 698.2	29653
 698.7	29669
 699.2	29628
 699.7	29637
 700.3	29594
 700.8	29572
 701.3	29647
 701.8	29608
 702.3	29553
 702.8	29542
 703.4	29534
 703.9	29504
 704.4	29463
 704.9	29423
 705.4	29413
 706.0	29470
 706.5	29439
 707.0	29342
 707.5	29315
 708.0	29323
 708.5	29255
 709.1	29302
 709.6	29247
 710.1	29182
 710.6	29154
 711.1	29129
 711.7	29130
 712.2	29107
 712.7	29103
 713.2	29068
 713.7	29055
 714.2	29002
 714.8	29077
 715.3	29017
 715.8	29009
 716.3	29017
 716.8	28934
 717.3	28923
 717.8	29018
 718.4	29030
 718.9	28971
 719.4	29048
 719.9	28958
 720.4	29008
 720.9	29030
 721.4	29016
 722.0	29049
 722.5	29050
 723.0	29043
 723.5	29057
 724.0	29035
 724.5	29025
 725.0	29066
 725.6	29007
 726.1	29067
 726.6	29175
 727.1	29121
 727.6	29164
 728.1	29185
 728.6	29151
 729.1	29146
 729.7	29131
 730.2	29163
 730.7	29185
 731.2	29223
 731.7	29206
 732.2	29231
 732.7	29199
 733.2	29241
 733.8	29214
 734.3	29240
 734.8	29229
 735.3	29265
 735.8	29264
 736.3	29260
 736.8	29308
 737.3	29365
 737.8	29322
 738.4	29323
 738.9	29289
 739.4	29382
 739.9	29363
 740.4	29389
 740.9	29367
 741.4	29371
 741.9	29363
 742.4	29379
 742.9	29364
 743.4	29427
 744.0	29332
 744.5	29319
 745.0	29319
 745.5	29377
 746.0	29339
 746.5	29341
 747.0	29270
 747.5	29242
 748.0	29206
 748.5	29216
 749.0	29213
 749.5	29270
 750.0	29103
 750.5	29127
 751.1	29109
 751.6	29087
 752.1	29044
 752.6	28999
 753.1	29014
 753.6	28932
 754.1	28875
 754.6	28893
 755.1	28821
 755.6	28804
 756.1	28696
 756.6	28753
 757.1	28703
 757.6	28660
 758.1	28584
 758.6	28560
 759.1	28460
 759.6	28468
 760.1	28389
 760.7	28315
 761.2	28360
 761.7	28293
 762.2	28243
 762.7	28253
 763.2	28108
 763.7	28146
 764.2	28053
 764.7	28016
 765.2	28006
 765.7	27939
 766.2	27871
 766.7	27865
 767.2	27783
 767.7	27746
 768.2	27698
 768.7	27634
 769.2	27589
 769.7	27598
 770.2	27542
 770.7	27517
 771.2	27469
 771.7	27423
 772.2	27409
 772.7	27429
 773.2	27381
 773.7	27320
 774.2	27256
 774.7	27274
 775.2	27229
 775.7	27199
 776.2	27171
 776.7	27184
 777.2	27095
 777.7	27149
 778.2	27111
 778.7	27141
 779.2	27133
 779.7	27145
 780.2	26984
 780.7	27039
 781.2	27025
 781.7	27075
 782.2	26995
 782.6	27053
 783.1	27046
 783.6	26995
 784.1	26953
 784.6	26937
 785.1	26943
 785.6	26931
 786.1	26940
 786.6	26946
 787.1	26892
 787.6	26873
 788.1	26851
 788.6	26828
 789.1	26809
 789.6	26821
 790.1	26823
 790.6	26803
 791.1	26697
 791.6	26677
 792.0	26674
 792.5	26680
 793.0	26640
 793.5	26614
 794.0	26533
 794.5	26592
 795.0	26536
 795.5	26497
 796.0	26471
 796.5	26399
 797.0	26387
 797.5	26393
 798.0	26223
 798.4	26219
 798.9	26171
 799.4	26146
 799.9	26115
 800.4	25959
 800.9	26008
 801.4	26019
 801.9	25934
 802.4	25818
 802.9	25837
 803.3	25792
 803.8	25715
 804.3	25637
 804.8	25644
 805.3	25566
 805.8	25501
 806.3	25450
 806.8	25393
 807.2	25349
 807.7	25271
 808.2	25251
 808.7	25148
 809.2	25111
 809.7	25003
 810.2	25029
 810.7	24930
 811.1	24895
 811.6	24863
 812.1	24783
 812.6	24703
 813.1	24709
 813.6	24695
 814.1	24645
 814.5	24577
 815.0	24558
 815.5	24481
 816.0	24414
 816.5	24442
 817.0	24358
 817.4	24318
 817.9	24323
 818.4	24219
 818.9	24269
 819.4	24204
 819.9	24150
 820.3	24102
 820.8	24078
 821.3	24054
 821.8	24043
 822.3	23961
 822.7	23921
 823.2	23962
 823.7	23894
 824.2	23874
 824.7	23835
 825.2	23825
 825.6	23789
 826.1	23757
 826.6	23791
 827.1	23752
 827.6	23737
 828.0	23662
 828.5	23625
 829.0	23638
 829.5	23572
 829.9	23563
 830.4	23598
 830.9	23563
 831.4	23583
 831.9	23517
 832.3	23583
 832.8	23503
 833.3	23498
 833.8	23556
 834.2	23537
 834.7	23382
 835.2	23460
 835.7	23447
 836.1	23431
 836.6	23403
 837.1	23394
 837.6	23393
 838.0	23414
 838.5	23425
 839.0	23418
 839.5	23400
 839.9	23307
 840.4	23307
 840.9	23269
 841.4	23291
 841.8	23301
 842.3	23305
 842.8	23315
 843.3	23299
 843.7	23185
 844.2	23166
 844.7	23233
 845.1	23199
 845.6	23112
 846.1	23119
 846.6	23145
 847.0	23037
 847.5	23071
 848.0	23043
 848.4	23063
 848.9	23012
 849.4	22976
 849.8	22979
 850.3	22974
 850.8	22998
 851.3	22947
 851.7	22922
 852.2	22911
 852.7	22895
 853.1	22855
 853.6	22786
 854.1	22807
 854.5	22762
 855.0	22724
 855.5	22697
 855.9	22742
 856.4	22711
 856.9	22611
 857.3	22647
 857.8	22590
 858.3	22600
 858.7	22538
 859.2	22543
 859.7	22537
 860.1	22579
 860.6	22535
 861.1	22459
 861.5	22483
 862.0	22467
 862.4	22421
 862.9	22369
 863.4	22389
 863.8	22381
 864.3	22363
 864.8	22265
 865.2	22298
 865.7	22303
 866.1	22299
 866.6	22206
 867.1	22269
 867.5	22235
 868.0	22202
 868.5	22138
 868.9	22123
 869.4	22204
 869.8	22150
 870.3	22092
 870.8	22153
 871.2	22103
 871.7	22084
 872.1	22024
 872.6	22059
 873.0	22026
 873.5	22094
 874.0	22071
 874.4	21951
 874.9	21971
 875.3	21915
 875.8	21796
 876.2	21570
 876.7	21399
 877.2	21030
 877.6	20582
 878.1	20129
