#xlabel Wavelength (nm)
#ylabel Spectrometer Array Counts
#title Exposure time is 10000 ms
## lambda	counts
 349.8	17553
 350.3	17844
 350.8	18051
 351.3	18169
 351.9	18199
 352.4	18265
 352.9	18295
 353.4	18241
 354.0	18238
 354.5	18279
 355.0	18285
 355.5	18307
 356.0	18268
 356.6	18241
 357.1	18296
 357.6	18272
 358.1	18304
 358.7	18247
 359.2	18259
 359.7	18279
 360.2	18316
 360.8	18283
 361.3	18379
 361.8	18324
 362.3	18354
 362.9	18312
 363.4	18383
 363.9	18387
 364.4	18417
 364.9	18323
 365.5	18400
 366.0	18385
 366.5	18344
 367.0	18391
 367.6	18421
 368.1	18421
 368.6	18357
 369.1	18417
 369.7	18467
 370.2	18394
 370.7	18401
 371.2	18442
 371.8	18501
 372.3	18429
 372.8	18507
 373.3	18525
 373.9	18481
 374.4	18494
 374.9	18545
 375.5	18448
 376.0	18574
 376.5	18543
 377.0	18577
 377.6	18527
 378.1	18605
 378.6	18552
 379.1	18561
 379.7	18549
 380.2	18623
 380.7	18632
 381.2	18597
 381.8	18597
 382.3	18644
 382.8	18629
 383.4	18678
 383.9	18636
 384.4	18800
 384.9	18714
 385.5	18735
 386.0	18737
 386.5	18815
 387.1	18748
 387.6	18777
 388.1	18784
 388.6	18805
 389.2	18806
 389.7	18835
 390.2	18825
 390.8	18927
 391.3	18901
 391.8	18908
 392.3	18909
 392.9	18915
 393.4	18919
 393.9	19003
 394.5	19015
 395.0	18975
 395.5	19009
 396.0	19022
 396.6	19000
 397.1	19105
 397.6	19105
 398.2	19117
 398.7	19125
 399.2	19219
 399.8	19101
 400.3	19172
 400.8	19222
 401.3	19198
 401.9	19226
 402.4	19249
 402.9	19248
 403.5	19278
 404.0	19279
 404.5	19245
 405.1	19259
 405.6	19362
 406.1	19357
 406.7	19375
 407.2	19403
 407.7	19495
 408.2	19505
 408.8	19517
 409.3	19564
 409.8	19623
 410.4	19600
 410.9	19612
 411.4	19573
 412.0	19652
 412.5	19715
 413.0	19673
 413.6	19727
 414.1	19705
 414.6	19743
 415.2	19803
 415.7	19749
 416.2	19811
 416.8	19808
 417.3	19799
 417.8	19838
 418.4	19935
 418.9	19887
 419.4	20029
 420.0	19931
 420.5	20010
 421.0	19955
 421.5	20057
 422.1	20041
 422.6	20104
 423.1	20146
 423.7	20118
 424.2	20110
 424.7	20155
 425.3	20144
 425.8	20170
 426.3	20168
 426.9	20239
 427.4	20196
 427.9	20315
 428.5	20268
 429.0	20320
 429.6	20296
 430.1	20399
 430.6	20413
 431.2	20386
 431.7	20506
 432.2	20500
 432.8	20501
 433.3	20640
 433.8	20670
 434.4	20666
 434.9	20707
 435.4	20785
 436.0	20791
 436.5	20803
 437.0	20893
 437.6	20891
 438.1	20957
 438.6	20970
 439.2	21010
 439.7	20998
 440.2	20951
 440.8	20987
 441.3	20991
 441.8	21001
 442.4	20971
 442.9	21001
 443.5	21037
 444.0	21039
 444.5	21063
 445.1	20990
 445.6	21033
 446.1	21074
 446.7	21103
 447.2	21139
 447.7	21150
 448.3	21243
 448.8	21233
 449.3	21303
 449.9	21286
 450.4	21421
 450.9	21491
 451.5	21531
 452.0	21547
 452.6	21605
 453.1	21699
 453.6	21749
 454.2	21683
 454.7	21791
 455.2	21843
 455.8	21918
 456.3	21889
 456.8	22035
 457.4	21987
 457.9	22014
 458.5	22071
 459.0	22041
 459.5	22086
 460.1	22052
 460.6	22097
 461.1	22088
 461.7	22139
 462.2	22092
 462.7	22131
 463.3	22069
 463.8	22139
 464.4	22213
 464.9	22169
 465.4	22244
 466.0	22175
 466.5	22257
 467.0	22212
 467.6	22297
 468.1	22401
 468.7	22371
 469.2	22327
 469.7	22445
 470.3	22455
 470.8	22521
 471.3	22531
 471.9	22526
 472.4	22606
 473.0	22672
 473.5	22719
 474.0	22743
 474.6	22778
 475.1	22797
 475.6	22895
 476.2	22928
 476.7	22929
 477.3	23006
 477.8	22972
 478.3	22925
 478.9	23144
 479.4	23066
 479.9	23100
 480.5	23113
 481.0	23166
 481.6	23217
 482.1	23309
 482.6	23315
 483.2	23359
 483.7	23485
 484.2	23461
 484.8	23337
 485.3	23457
 485.9	23554
 486.4	23542
 486.9	23599
 487.5	23581
 488.0	23622
 488.6	23695
 489.1	23730
 489.6	23800
 490.2	23820
 490.7	23798
 491.2	23775
 491.8	23850
 492.3	23814
 492.9	23866
 493.4	23892
 493.9	23913
 494.5	23917
 495.0	23975
 495.6	23900
 496.1	23905
 496.6	23959
 497.2	23873
 497.7	23847
 498.2	23919
 498.8	23938
 499.3	23863
 499.9	23914
 500.4	23923
 500.9	23919
 501.5	23932
 502.0	24029
 502.6	24035
 503.1	24148
 503.6	24150
 504.2	24146
 504.7	24198
 505.2	24300
 505.8	24339
 506.3	24484
 506.9	24549
 507.4	24575
 507.9	24616
 508.5	24713
 509.0	24819
 509.6	24946
 510.1	24973
 510.6	25063
 511.2	25142
 511.7	25195
 512.2	25305
 512.8	25378
 513.3	25386
 513.9	25406
 514.4	25503
 514.9	25603
 515.5	25516
 516.0	25602
 516.6	25567
 517.1	25613
 517.6	25581
 518.2	25551
 518.7	25472
 519.3	25498
 519.8	25509
 520.3	25477
 520.9	25411
 521.4	25395
 521.9	25422
 522.5	25313
 523.0	25307
 523.6	25324
 524.1	25170
 524.6	25205
 525.2	25225
 525.7	25270
 526.3	25207
 526.8	25316
 527.3	25283
 527.9	25325
 528.4	25334
 528.9	25427
 529.5	25464
 530.0	25493
 530.6	25589
 531.1	25642
 531.6	25611
 532.2	25773
 532.7	25797
 533.3	25900
 533.8	26073
 534.3	26173
 534.9	26239
 535.4	26263
 536.0	26387
 536.5	26484
 537.0	26521
 537.6	26601
 538.1	26709
 538.6	26774
 539.2	26769
 539.7	26827
 540.3	26962
 540.8	26967
 541.3	26955
 541.9	27018
 542.4	27037
 543.0	27116
 543.5	27097
 544.0	27081
 544.6	27115
 545.1	27139
 545.6	27161
 546.2	27150
 546.7	27056
 547.3	27117
 547.8	27086
 548.3	27124
 548.9	27022
 549.4	27018
 550.0	26982
 550.5	27042
 551.0	27071
 551.6	27017
 552.1	27026
 552.6	27026
 553.2	26983
 553.7	26967
 554.3	26999
 554.8	27071
 555.3	26940
 555.9	27012
 556.4	26998
 556.9	27121
 557.5	27152
 558.0	27139
 558.6	27139
 559.1	27226
 559.6	27231
 560.2	27263
 560.7	27294
 561.3	27285
 561.8	27295
 562.3	27442
 562.9	27450
 563.4	27511
 563.9	27515
 564.5	27548
 565.0	27563
 565.6	27595
 566.1	27614
 566.6	27622
 567.2	27623
 567.7	27728
 568.2	27671
 568.8	27679
 569.3	27671
 569.9	27731
 570.4	27723
 570.9	27714
 571.5	27718
 572.0	27723
 572.5	27788
 573.1	27746
 573.6	27823
 574.1	27825
 574.7	27846
 575.2	27843
 575.8	27900
 576.3	27996
 576.8	27988
 577.4	28025
 577.9	28072
 578.4	28074
 579.0	28111
 579.5	28253
 580.1	28201
 580.6	28262
 581.1	28369
 581.7	28421
 582.2	28409
 582.7	28475
 583.3	28542
 583.8	28550
 584.3	28531
 584.9	28611
 585.4	28629
 586.0	28643
 586.5	28705
 587.0	28698
 587.6	28793
 588.1	28764
 588.6	28843
 589.2	28798
 589.7	28837
 590.2	28829
 590.8	28819
 591.3	28843
 591.9	28780
 592.4	28823
 592.9	28752
 593.5	28731
 594.0	28698
 594.5	28689
 595.1	28638
 595.6	28587
 596.1	28609
 596.7	28553
 597.2	28561
 597.7	28479
 598.3	28473
 598.8	28424
 599.3	28395
 599.9	28340
 600.4	28312
 601.0	28299
 601.5	28274
 602.0	28253
 602.6	28199
 603.1	28211
 603.6	28220
 604.2	28305
 604.7	28230
 605.2	28307
 605.8	28232
 606.3	28273
 606.8	28361
 607.4	28372
 607.9	28433
 608.4	28401
 609.0	28468
 609.5	28533
 610.0	28549
 610.6	28659
 611.1	28614
 611.6	28694
 612.2	28727
 612.7	28820
 613.2	28859
 613.8	28838
 614.3	28915
 614.8	28995
 615.4	28992
 615.9	29133
 616.4	29244
 617.0	29245
 617.5	29377
 618.0	29458
 618.6	29469
 619.1	29561
 619.6	29691
 620.2	29780
 620.7	29909
 621.2	29947
 621.8	30042
 622.3	30133
 622.8	30161
 623.4	30241
 623.9	30337
 624.4	30354
 625.0	30378
 625.5	30395
 626.0	30424
 626.6	30489
 627.1	30475
 627.6	30427
 628.2	30393
 628.7	30435
 629.2	30414
 629.8	30419
 630.3	30399
 630.8	30369
 631.4	30313
 631.9	30287
 632.4	30149
 632.9	30114
 633.5	30075
 634.0	30001
 634.5	30009
 635.1	29905
 635.6	29863
 636.1	29791
 636.7	29778
 637.2	29732
 637.7	29600
 638.3	29661
 638.8	29609
 639.3	29591
 639.8	29501
 640.4	29494
 640.9	29487
 641.4	29382
 642.0	29340
 642.5	29337
 643.0	29303
 643.6	29382
 644.1	29322
 644.6	29342
 645.1	29349
 645.7	29352
 646.2	29307
 646.7	29332
 647.3	29367
 647.8	29390
 648.3	29367
 648.9	29421
 649.4	29364
 649.9	29442
 650.4	29472
 651.0	29549
 651.5	29580
 652.0	29657
 652.6	29639
 653.1	29745
 653.6	29693
 654.1	29786
 654.7	29785
 655.2	29901
 655.7	29959
 656.3	30003
 656.8	29990
 657.3	30075
 657.8	30060
 658.4	30095
 658.9	30137
 659.4	30223
 659.9	30249
 660.5	30253
 661.0	30305
 661.5	30365
 662.1	30343
 662.6	30365
 663.1	30346
 663.6	30437
 664.2	30393
 664.7	30375
 665.2	30323
 665.7	30426
 666.3	30392
 666.8	30389
 667.3	30389
 667.8	30355
 668.4	30369
 668.9	30370
 669.4	30332
 669.9	30346
 670.5	30271
 671.0	30279
 671.5	30226
 672.0	30259
 672.6	30240
 673.1	30263
 673.6	30165
 674.1	30179
 674.7	30156
 675.2	30186
 675.7	30055
 676.2	30035
 676.8	30085
 677.3	30076
 677.8	29996
 678.3	30077
 678.9	30004
 679.4	29931
 679.9	29985
 680.4	29964
 681.0	29917
 681.5	29937
 682.0	29884
 682.5	29912
 683.1	29814
 683.6	29835
 684.1	29771
 684.6	29857
 685.1	29803
 685.7	29805
 686.2	29779
 686.7	29739
 687.2	29727
 687.8	29777
 688.3	29723
 688.8	29741
 689.3	29684
 689.8	29711
 690.4	29700
 690.9	29718
 691.4	29743
 691.9	29739
 692.4	29720
 693.0	29782
 693.5	29751
 694.0	29739
 694.5	29734
 695.1	29719
 695.6	29684
 696.1	29754
 696.6	29742
 697.1	29766
 697.7	29788
 698.2	29719
 698.7	29745
 699.2	29706
 699.7	29713
 700.3	29668
 700.8	29647
 701.3	29725
 701.8	29683
 702.3	29628
 702.8	29620
 703.4	29607
 703.9	29581
 704.4	29540
 704.9	29503
 705.4	29494
 706.0	29538
 706.5	29510
 707.0	29416
 707.5	29391
 708.0	29396
 708.5	29325
 709.1	29368
 709.6	29319
 710.1	29256
 710.6	29230
 711.1	29197
 711.7	29201
 712.2	29181
 712.7	29176
 713.2	29136
 713.7	29123
 714.2	29071
 714.8	29155
 715.3	29090
 715.8	29081
 716.3	29081
 716.8	29010
 717.3	28994
 717.8	29089
 718.4	29102
 718.9	29039
 719.4	29127
 719.9	29037
 720.4	29083
 720.9	29102
 721.4	29095
 722.0	29126
 722.5	29119
 723.0	29114
 723.5	29127
 724.0	29111
 724.5	29098
 725.0	29135
 725.6	29084
 726.1	29139
 726.6	29248
 727.1	29193
 727.6	29237
 728.1	29265
 728.6	29225
 729.1	29215
 729.7	29209
 730.2	29229
 730.7	29255
 731.2	29293
 731.7	29279
 732.2	29299
 732.7	29272
 733.2	29309
 733.8	29283
 734.3	29310
 734.8	29298
 735.3	29330
 735.8	29339
 736.3	29327
 736.8	29379
 737.3	29433
 737.8	29394
 738.4	29401
 738.9	29365
 739.4	29451
 739.9	29441
 740.4	29467
 740.9	29439
 741.4	29443
 741.9	29437
 742.4	29453
 742.9	29433
 743.4	29502
 744.0	29407
 744.5	29394
 745.0	29394
 745.5	29446
 746.0	29411
 746.5	29414
 747.0	29343
 747.5	29313
 748.0	29278
 748.5	29292
 749.0	29287
 749.5	29345
 750.0	29173
 750.5	29190
 751.1	29177
 751.6	29161
 752.1	29119
 752.6	29069
 753.1	29082
 753.6	28999
 754.1	28952
 754.6	28963
 755.1	28891
 755.6	28874
 756.1	28766
 756.6	28826
 757.1	28773
 757.6	28723
 758.1	28659
 758.6	28625
 759.1	28525
 759.6	28539
 760.1	28454
 760.7	28381
 761.2	28430
 761.7	28359
 762.2	28316
 762.7	28317
 763.2	28181
 763.7	28208
 764.2	28115
 764.7	28091
 765.2	28072
 765.7	28001
 766.2	27931
 766.7	27935
 767.2	27846
 767.7	27811
 768.2	27762
 768.7	27688
 769.2	27648
 769.7	27663
 770.2	27605
 770.7	27585
 771.2	27529
 771.7	27489
 772.2	27475
 772.7	27497
 773.2	27443
 773.7	27381
 774.2	27322
 774.7	27332
 775.2	27298
 775.7	27266
 776.2	27232
 776.7	27248
 777.2	27159
 777.7	27209
 778.2	27177
 778.7	27204
 779.2	27198
 779.7	27210
 780.2	27050
 780.7	27101
 781.2	27083
 781.7	27131
 782.2	27055
 782.6	27118
 783.1	27104
 783.6	27063
 784.1	27007
 784.6	26998
 785.1	27004
 785.6	26993
 786.1	27007
 786.6	27009
 787.1	26955
 787.6	26938
 788.1	26921
 788.6	26900
 789.1	26873
 789.6	26882
 790.1	26888
 790.6	26867
 791.1	26765
 791.6	26740
 792.0	26731
 792.5	26739
 793.0	26701
 793.5	26670
 794.0	26595
 794.5	26654
 795.0	26597
 795.5	26558
 796.0	26529
 796.5	26461
 797.0	26444
 797.5	26453
 798.0	26281
 798.4	26283
 798.9	26231
 799.4	26203
 799.9	26179
 800.4	26010
 800.9	26067
 801.4	26075
 801.9	25998
 802.4	25881
 802.9	25897
 803.3	25853
 803.8	25782
 804.3	25693
 804.8	25702
 805.3	25616
 805.8	25553
 806.3	25507
 806.8	25447
 807.2	25400
 807.7	25327
 808.2	25309
 808.7	25198
 809.2	25157
 809.7	25062
 810.2	25078
 810.7	24988
 811.1	24956
 811.6	24920
 812.1	24831
 812.6	24758
 813.1	24763
 813.6	24745
 814.1	24707
 814.5	24628
 815.0	24615
 815.5	24533
 816.0	24462
 816.5	24487
 817.0	24408
 817.4	24367
 817.9	24369
 818.4	24273
 818.9	24327
 819.4	24257
 819.9	24208
 820.3	24153
 820.8	24130
 821.3	24112
 821.8	24095
 822.3	24010
 822.7	23970
 823.2	24009
 823.7	23945
 824.2	23927
 824.7	23883
 825.2	23870
 825.6	23833
 826.1	23806
 826.6	23841
 827.1	23803
 827.6	23791
 828.0	23714
 828.5	23667
 829.0	23687
 829.5	23619
 829.9	23605
 830.4	23651
 830.9	23610
 831.4	23622
 831.9	23571
 832.3	23630
 832.8	23555
 833.3	23539
 833.8	23605
 834.2	23591
 834.7	23430
 835.2	23503
 835.7	23494
 836.1	23474
 836.6	23447
 837.1	23439
 837.6	23437
 838.0	23458
 838.5	23468
 839.0	23468
 839.5	23446
 839.9	23354
 840.4	23358
 840.9	23313
 841.4	23339
 841.8	23353
 842.3	23351
 842.8	23361
 843.3	23347
 843.7	23237
 844.2	23214
 844.7	23279
 845.1	23248
 845.6	23161
 846.1	23169
 846.6	23194
 847.0	23085
 847.5	23115
 848.0	23090
 848.4	23109
 848.9	23063
 849.4	23022
 849.8	23027
 850.3	23017
 850.8	23045
 851.3	22989
 851.7	22968
 852.2	22955
 852.7	22937
 853.1	22895
 853.6	22831
 854.1	22856
 854.5	22799
 855.0	22776
 855.5	22744
 855.9	22791
 856.4	22757
 856.9	22658
 857.3	22690
 857.8	22638
 858.3	22645
 858.7	22578
 859.2	22589
 859.7	22577
 860.1	22623
 860.6	22581
 861.1	22504
 861.5	22535
 862.0	22511
 862.4	22466
 862.9	22415
 863.4	22443
 863.8	22425
 864.3	22409
 864.8	22307
 865.2	22341
 865.7	22345
 866.1	22338
 866.6	22247
 867.1	22316
 867.5	22284
 868.0	22243
 868.5	22186
 868.9	22163
 869.4	22249
 869.8	22193
 870.3	22141
 870.8	22193
 871.2	22133
 871.7	22113
 872.1	22045
 872.6	22075
 873.0	22033
 873.5	22083
 874.0	22057
 874.4	21939
 874.9	21978
 875.3	21969
 875.8	21921
 876.2	21817
 876.7	21759
 877.2	21491
 877.6	21043
 878.1	20430
