#xlabel Wavelength (nm)
#ylabel Spectrometer Array Counts
#title Exposure time is 11000 ms
## lambda	counts
 349.8	18880
 350.3	19123
 350.8	19360
 351.3	19556
 351.9	19673
 352.4	19807
 352.9	19896
 353.4	19876
 354.0	19896
 354.5	19958
 355.0	19977
 355.5	20001
 356.0	19971
 356.6	19939
 357.1	20002
 357.6	19980
 358.1	20016
 358.7	19962
 359.2	19979
 359.7	20002
 360.2	20045
 360.8	20016
 361.3	20119
 361.8	20063
 362.3	20095
 362.9	20054
 363.4	20141
 363.9	20137
 364.4	20171
 364.9	20079
 365.5	20156
 366.0	20147
 366.5	20101
 367.0	20151
 367.6	20180
 368.1	20184
 368.6	20118
 369.1	20191
 369.7	20238
 370.2	20162
 370.7	20168
 371.2	20215
 371.8	20282
 372.3	20198
 372.8	20290
 373.3	20308
 373.9	20249
 374.4	20276
 374.9	20331
 375.5	20217
 376.0	20357
 376.5	20323
 377.0	20355
 377.6	20309
 378.1	20398
 378.6	20339
 379.1	20343
 379.7	20333
 380.2	20420
 380.7	20428
 381.2	20393
 381.8	20386
 382.3	20431
 382.8	20423
 383.4	20479
 383.9	20427
 384.4	20589
 384.9	20499
 385.5	20512
 386.0	20518
 386.5	20601
 387.1	20532
 387.6	20563
 388.1	20564
 388.6	20594
 389.2	20585
 389.7	20611
 390.2	20604
 390.8	20711
 391.3	20690
 391.8	20697
 392.3	20691
 392.9	20698
 393.4	20709
 393.9	20793
 394.5	20804
 395.0	20771
 395.5	20799
 396.0	20813
 396.6	20778
 397.1	20890
 397.6	20895
 398.2	20900
 398.7	20900
 399.2	21004
 399.8	20874
 400.3	20949
 400.8	21003
 401.3	20970
 401.9	20995
 402.4	21018
 402.9	21017
 403.5	21057
 404.0	21051
 404.5	21010
 405.1	21030
 405.6	21138
 406.1	21128
 406.7	21146
 407.2	21166
 407.7	21266
 408.2	21271
 408.8	21291
 409.3	21337
 409.8	21390
 410.4	21366
 410.9	21387
 411.4	21341
 412.0	21423
 412.5	21488
 413.0	21441
 413.6	21499
 414.1	21470
 414.6	21507
 415.2	21563
 415.7	21515
 416.2	21577
 416.8	21576
 417.3	21567
 417.8	21599
 418.4	21703
 418.9	21652
 419.4	21799
 420.0	21694
 420.5	21776
 421.0	21711
 421.5	21816
 422.1	21794
 422.6	21862
 423.1	21900
 423.7	21873
 424.2	21863
 424.7	21907
 425.3	21891
 425.8	21921
 426.3	21913
 426.9	21986
 427.4	21930
 427.9	22058
 428.5	22006
 429.0	22055
 429.6	22036
 430.1	22140
 430.6	22157
 431.2	22125
 431.7	22249
 432.2	22240
 432.8	22239
 433.3	22379
 433.8	22410
 434.4	22399
 434.9	22444
 435.4	22523
 436.0	22517
 436.5	22534
 437.0	22630
 437.6	22615
 438.1	22681
 438.6	22699
 439.2	22737
 439.7	22727
 440.2	22670
 440.8	22713
 441.3	22713
 441.8	22718
 442.4	22687
 442.9	22719
 443.5	22758
 444.0	22751
 444.5	22781
 445.1	22691
 445.6	22738
 446.1	22780
 446.7	22808
 447.2	22840
 447.7	22847
 448.3	22944
 448.8	22931
 449.3	23003
 449.9	22972
 450.4	23119
 450.9	23190
 451.5	23229
 452.0	23239
 452.6	23294
 453.1	23395
 453.6	23441
 454.2	23365
 454.7	23467
 455.2	23530
 455.8	23605
 456.3	23571
 456.8	23719
 457.4	23663
 457.9	23685
 458.5	23740
 459.0	23710
 459.5	23760
 460.1	23715
 460.6	23769
 461.1	23751
 461.7	23803
 462.2	23751
 462.7	23798
 463.3	23725
 463.8	23796
 464.4	23870
 464.9	23815
 465.4	23903
 466.0	23815
 466.5	23907
 467.0	23851
 467.6	23937
 468.1	24050
 468.7	24015
 469.2	23961
 469.7	24087
 470.3	24087
 470.8	24161
 471.3	24163
 471.9	24151
 472.4	24233
 473.0	24303
 473.5	24350
 474.0	24367
 474.6	24401
 475.1	24423
 475.6	24520
 476.2	24550
 476.7	24543
 477.3	24626
 477.8	24591
 478.3	24530
 478.9	24763
 479.4	24673
 479.9	24703
 480.5	24715
 481.0	24766
 481.6	24808
 482.1	24905
 482.6	24910
 483.2	24959
 483.7	25086
 484.2	25063
 484.8	24918
 485.3	25039
 485.9	25139
 486.4	25128
 486.9	25180
 487.5	25153
 488.0	25191
 488.6	25268
 489.1	25305
 489.6	25372
 490.2	25387
 490.7	25355
 491.2	25335
 491.8	25414
 492.3	25367
 492.9	25425
 493.4	25442
 493.9	25460
 494.5	25466
 495.0	25523
 495.6	25441
 496.1	25455
 496.6	25503
 497.2	25415
 497.7	25377
 498.2	25464
 498.8	25476
 499.3	25394
 499.9	25451
 500.4	25459
 500.9	25454
 501.5	25465
 502.0	25558
 502.6	25562
 503.1	25680
 503.6	25679
 504.2	25668
 504.7	25718
 505.2	25823
 505.8	25849
 506.3	25995
 506.9	26063
 507.4	26086
 507.9	26119
 508.5	26207
 509.0	26305
 509.6	26443
 510.1	26461
 510.6	26546
 511.2	26621
 511.7	26664
 512.2	26776
 512.8	26841
 513.3	26845
 513.9	26869
 514.4	26951
 514.9	27065
 515.5	26976
 516.0	27057
 516.6	27017
 517.1	27060
 517.6	27027
 518.2	26993
 518.7	26914
 519.3	26950
 519.8	26951
 520.3	26921
 520.9	26855
 521.4	26838
 521.9	26874
 522.5	26756
 523.0	26749
 523.6	26777
 524.1	26616
 524.6	26651
 525.2	26674
 525.7	26718
 526.3	26655
 526.8	26756
 527.3	26714
 527.9	26759
 528.4	26767
 528.9	26847
 529.5	26900
 530.0	26923
 530.6	27015
 531.1	27058
 531.6	27016
 532.2	27191
 532.7	27205
 533.3	27299
 533.8	27475
 534.3	27574
 534.9	27636
 535.4	27647
 536.0	27772
 536.5	27868
 537.0	27893
 537.6	27970
 538.1	28069
 538.6	28140
 539.2	28123
 539.7	28189
 540.3	28315
 540.8	28319
 541.3	28308
 541.9	28365
 542.4	28381
 543.0	28462
 543.5	28436
 544.0	28414
 544.6	28453
 545.1	28482
 545.6	28499
 546.2	28487
 546.7	28379
 547.3	28444
 547.8	28411
 548.3	28447
 548.9	28343
 549.4	28342
 550.0	28307
 550.5	28363
 551.0	28391
 551.6	28339
 552.1	28343
 552.6	28346
 553.2	28295
 553.7	28277
 554.3	28314
 554.8	28389
 555.3	28245
 555.9	28317
 556.4	28301
 556.9	28422
 557.5	28452
 558.0	28430
 558.6	28424
 559.1	28511
 559.6	28517
 560.2	28548
 560.7	28572
 561.3	28566
 561.8	28569
 562.3	28711
 562.9	28714
 563.4	28777
 563.9	28772
 564.5	28813
 565.0	28812
 565.6	28851
 566.1	28861
 566.6	28873
 567.2	28871
 567.7	28978
 568.2	28917
 568.8	28919
 569.3	28920
 569.9	28981
 570.4	28962
 570.9	28952
 571.5	28951
 572.0	28959
 572.5	29021
 573.1	28983
 573.6	29059
 574.1	29055
 574.7	29073
 575.2	29059
 575.8	29125
 576.3	29224
 576.8	29205
 577.4	29241
 577.9	29286
 578.4	29278
 579.0	29307
 579.5	29452
 580.1	29398
 580.6	29449
 581.1	29554
 581.7	29607
 582.2	29577
 582.7	29639
 583.3	29704
 583.8	29708
 584.3	29685
 584.9	29767
 585.4	29782
 586.0	29785
 586.5	29841
 587.0	29829
 587.6	29924
 588.1	29894
 588.6	29965
 589.2	29925
 589.7	29952
 590.2	29951
 590.8	29944
 591.3	29968
 591.9	29897
 592.4	29954
 592.9	29880
 593.5	29849
 594.0	29828
 594.5	29822
 595.1	29771
 595.6	29715
 596.1	29747
 596.7	29694
 597.2	29715
 597.7	29623
 598.3	29617
 598.8	29569
 599.3	29549
 599.9	29485
 600.4	29463
 601.0	29459
 601.5	29433
 602.0	29405
 602.6	29355
 603.1	29369
 603.6	29374
 604.2	29466
 604.7	29385
 605.2	29465
 605.8	29385
 606.3	29426
 606.8	29506
 607.4	29519
 607.9	29579
 608.4	29542
 609.0	29611
 609.5	29675
 610.0	29670
 610.6	29797
 611.1	29739
 611.6	29822
 612.2	29855
 612.7	29947
 613.2	29977
 613.8	29943
 614.3	30028
 614.8	30102
 615.4	30098
 615.9	30238
 616.4	30345
 617.0	30338
 617.5	30468
 618.0	30549
 618.6	30551
 619.1	30644
 619.6	30767
 620.2	30844
 620.7	30979
 621.2	31011
 621.8	31095
 622.3	31177
 622.8	31204
 623.4	31276
 623.9	31375
 624.4	31385
 625.0	31417
 625.5	31424
 626.0	31454
 626.6	31519
 627.1	31501
 627.6	31454
 628.2	31417
 628.7	31463
 629.2	31434
 629.8	31445
 630.3	31423
 630.8	31389
 631.4	31335
 631.9	31319
 632.4	31179
 632.9	31155
 633.5	31117
 634.0	31037
 634.5	31055
 635.1	30956
 635.6	30916
 636.1	30845
 636.7	30830
 637.2	30795
 637.7	30651
 638.3	30726
 638.8	30673
 639.3	30664
 639.8	30567
 640.4	30562
 640.9	30559
 641.4	30452
 642.0	30414
 642.5	30415
 643.0	30373
 643.6	30463
 644.1	30409
 644.6	30419
 645.1	30425
 645.7	30430
 646.2	30383
 646.7	30408
 647.3	30433
 647.8	30462
 648.3	30434
 648.9	30499
 649.4	30418
 649.9	30500
 650.4	30539
 651.0	30610
 651.5	30642
 652.0	30713
 652.6	30694
 653.1	30799
 653.6	30740
 654.1	30825
 654.7	30824
 655.2	30937
 655.7	30997
 656.3	31041
 656.8	31025
 657.3	31103
 657.8	31079
 658.4	31120
 658.9	31164
 659.4	31247
 659.9	31275
 660.5	31261
 661.0	31321
 661.5	31379
 662.1	31355
 662.6	31380
 663.1	31343
 663.6	31447
 664.2	31400
 664.7	31378
 665.2	31322
 665.7	31434
 666.3	31396
 666.8	31383
 667.3	31391
 667.8	31357
 668.4	31367
 668.9	31371
 669.4	31336
 669.9	31351
 670.5	31276
 671.0	31282
 671.5	31237
 672.0	31269
 672.6	31247
 673.1	31277
 673.6	31170
 674.1	31183
 674.7	31164
 675.2	31193
 675.7	31055
 676.2	31038
 676.8	31083
 677.3	31076
 677.8	30986
 678.3	31073
 678.9	31003
 679.4	30927
 679.9	30981
 680.4	30957
 681.0	30913
 681.5	30935
 682.0	30874
 682.5	30905
 683.1	30803
 683.6	30833
 684.1	30767
 684.6	30861
 685.1	30806
 685.7	30811
 686.2	30788
 686.7	30745
 687.2	30739
 687.8	30794
 688.3	30733
 688.8	30755
 689.3	30690
 689.8	30727
 690.4	30715
 690.9	30724
 691.4	30747
 691.9	30751
 692.4	30729
 693.0	30799
 693.5	30761
 694.0	30754
 694.5	30751
 695.1	30730
 695.6	30689
 696.1	30767
 696.6	30750
 697.1	30769
 697.7	30797
 698.2	30725
 698.7	30756
 699.2	30717
 699.7	30731
 700.3	30675
 700.8	30650
 701.3	30737
 701.8	30697
 702.3	30633
 702.8	30632
 703.4	30614
 703.9	30589
 704.4	30550
 704.9	30511
 705.4	30498
 706.0	30553
 706.5	30520
 707.0	30428
 707.5	30395
 708.0	30405
 708.5	30327
 709.1	30377
 709.6	30313
 710.1	30250
 710.6	30204
 711.1	30169
 711.7	30165
 712.2	30119
 712.7	30113
 713.2	30041
 713.7	30017
 714.2	29942
 714.8	29995
 715.3	29905
 715.8	29869
 716.3	29842
 716.8	29739
 717.3	29699
 717.8	29777
 718.4	29767
 718.9	29693
 719.4	29770
 719.9	29662
 720.4	29706
 720.9	29723
 721.4	29715
 722.0	29753
 722.5	29748
 723.0	29761
 723.5	29785
 724.0	29764
 724.5	29772
 725.0	29826
 725.6	29773
 726.1	29848
 726.6	29975
 727.1	29931
 727.6	29987
 728.1	30029
 728.6	29991
 729.1	30008
 729.7	30001
 730.2	30037
 730.7	30081
 731.2	30120
 731.7	30118
 732.2	30148
 732.7	30128
 733.2	30183
 733.8	30161
 734.3	30192
 734.8	30185
 735.3	30227
 735.8	30239
 736.3	30231
 736.8	30290
 737.3	30349
 737.8	30311
 738.4	30318
 738.9	30283
 739.4	30387
 739.9	30373
 740.4	30409
 740.9	30378
 741.4	30387
 741.9	30389
 742.4	30403
 742.9	30392
 743.4	30466
 744.0	30381
 744.5	30365
 745.0	30377
 745.5	30434
 746.0	30408
 746.5	30415
 747.0	30349
 747.5	30319
 748.0	30291
 748.5	30302
 749.0	30291
 749.5	30371
 750.0	30191
 750.5	30223
 751.1	30209
 751.6	30195
 752.1	30161
 752.6	30115
 753.1	30139
 753.6	30052
 754.1	30004
 754.6	30019
 755.1	29953
 755.6	29944
 756.1	29835
 756.6	29906
 757.1	29850
 757.6	29819
 758.1	29749
 758.6	29724
 759.1	29623
 759.6	29640
 760.1	29562
 760.7	29484
 761.2	29545
 761.7	29471
 762.2	29427
 762.7	29439
 763.2	29296
 763.7	29347
 764.2	29245
 764.7	29219
 765.2	29212
 765.7	29146
 766.2	29080
 766.7	29084
 767.2	29004
 767.7	28975
 768.2	28925
 768.7	28863
 769.2	28819
 769.7	28836
 770.2	28784
 770.7	28757
 771.2	28703
 771.7	28662
 772.2	28650
 772.7	28681
 773.2	28636
 773.7	28568
 774.2	28505
 774.7	28527
 775.2	28483
 775.7	28461
 776.2	28431
 776.7	28446
 777.2	28357
 777.7	28419
 778.2	28383
 778.7	28415
 779.2	28416
 779.7	28429
 780.2	28260
 780.7	28311
 781.2	28298
 781.7	28352
 782.2	28274
 782.6	28335
 783.1	28325
 783.6	28291
 784.1	28239
 784.6	28232
 785.1	28229
 785.6	28221
 786.1	28233
 786.6	28245
 787.1	28186
 787.6	28171
 788.1	28154
 788.6	28129
 789.1	28108
 789.6	28118
 790.1	28131
 790.6	28110
 791.1	27997
 791.6	27995
 792.0	27976
 792.5	27993
 793.0	27949
 793.5	27927
 794.0	27851
 794.5	27910
 795.0	27859
 795.5	27819
 796.0	27795
 796.5	27723
 797.0	27711
 797.5	27723
 798.0	27546
 798.4	27544
 798.9	27499
 799.4	27475
 799.9	27459
 800.4	27275
 800.9	27353
 801.4	27366
 801.9	27287
 802.4	27169
 802.9	27192
 803.3	27147
 803.8	27075
 804.3	26995
 804.8	27009
 805.3	26929
 805.8	26866
 806.3	26823
 806.8	26769
 807.2	26720
 807.7	26659
 808.2	26637
 808.7	26518
 809.2	26491
 809.7	26390
 810.2	26419
 810.7	26315
 811.1	26290
 811.6	26257
 812.1	26171
 812.6	26099
 813.1	26109
 813.6	26099
 814.1	26051
 814.5	25973
 815.0	25970
 815.5	25885
 816.0	25819
 816.5	25849
 817.0	25774
 817.4	25734
 817.9	25739
 818.4	25634
 818.9	25693
 819.4	25621
 819.9	25575
 820.3	25518
 820.8	25497
 821.3	25489
 821.8	25471
 822.3	25385
 822.7	25349
 823.2	25393
 823.7	25319
 824.2	25311
 824.7	25271
 825.2	25262
 825.6	25224
 826.1	25193
 826.6	25235
 827.1	25194
 827.6	25186
 828.0	25105
 828.5	25071
 829.0	25091
 829.5	25019
 829.9	25010
 830.4	25057
 830.9	25014
 831.4	25035
 831.9	24973
 832.3	25035
 832.8	24959
 833.3	24955
 833.8	25020
 834.2	25005
 834.7	24839
 835.2	24917
 835.7	24909
 836.1	24888
 836.6	24866
 837.1	24859
 837.6	24859
 838.0	24880
 838.5	24891
 839.0	24885
 839.5	24862
 839.9	24777
 840.4	24778
 840.9	24738
 841.4	24758
 841.8	24783
 842.3	24780
 842.8	24786
 843.3	24771
 843.7	24659
 844.2	24643
 844.7	24709
 845.1	24676
 845.6	24585
 846.1	24601
 846.6	24621
 847.0	24517
 847.5	24555
 848.0	24515
 848.4	24543
 848.9	24493
 849.4	24454
 849.8	24461
 850.3	24452
 850.8	24475
 851.3	24423
 851.7	24403
 852.2	24390
 852.7	24374
 853.1	24342
 853.6	24274
 854.1	24301
 854.5	24242
 855.0	24214
 855.5	24190
 855.9	24235
 856.4	24198
 856.9	24105
 857.3	24135
 857.8	24083
 858.3	24091
 858.7	24023
 859.2	24038
 859.7	24023
 860.1	24065
 860.6	24018
 861.1	23933
 861.5	23958
 862.0	23945
 862.4	23888
 862.9	23827
 863.4	23844
 863.8	23831
 864.3	23801
 864.8	23703
 865.2	23724
 865.7	23724
 866.1	23727
 866.6	23615
 867.1	23675
 867.5	23650
 868.0	23606
 868.5	23547
 868.9	23522
 869.4	23612
 869.8	23558
 870.3	23504
 870.8	23557
 871.2	23505
 871.7	23483
 872.1	23417
 872.6	23447
 873.0	23403
 873.5	23462
 874.0	23425
 874.4	23284
 874.9	23290
 875.3	23218
 875.8	23092
 876.2	22853
 876.7	22687
 877.2	22339
 877.6	21930
 878.1	21527
