#xlabel Wavelength (nm)
#ylabel Spectrometer Array Counts
#title Exposure time is 11000 ms
## lambda	counts
 349.8	18679
 350.3	18938
 350.8	19185
 351.3	19385
 351.9	19507
 352.4	19631
 352.9	19712
 353.4	19677
 354.0	19688
 354.5	19733
 355.0	19735
 355.5	19750
 356.0	19706
 356.6	19677
 357.1	19726
 357.6	19697
 358.1	19726
 358.7	19665
 359.2	19675
 359.7	19696
 360.2	19735
 360.8	19697
 361.3	19793
 361.8	19735
 362.3	19761
 362.9	19713
 363.4	19794
 363.9	19786
 364.4	19822
 364.9	19714
 365.5	19792
 366.0	19770
 366.5	19724
 367.0	19763
 367.6	19789
 368.1	19781
 368.6	19715
 369.1	19766
 369.7	19815
 370.2	19731
 370.7	19734
 371.2	19772
 371.8	19823
 372.3	19737
 372.8	19811
 373.3	19820
 373.9	19754
 374.4	19773
 374.9	19821
 375.5	19695
 376.0	19826
 376.5	19781
 377.0	19799
 377.6	19743
 378.1	19817
 378.6	19742
 379.1	19739
 379.7	19714
 380.2	19783
 380.7	19779
 381.2	19737
 381.8	19723
 382.3	19755
 382.8	19727
 383.4	19776
 383.9	19717
 384.4	19877
 384.9	19773
 385.5	19786
 386.0	19785
 386.5	19855
 387.1	19783
 387.6	19797
 388.1	19793
 388.6	19808
 389.2	19782
 389.7	19800
 390.2	19774
 390.8	19858
 391.3	19820
 391.8	19804
 392.3	19780
 392.9	19765
 393.4	19751
 393.9	19810
 394.5	19802
 395.0	19747
 395.5	19759
 396.0	19755
 396.6	19711
 397.1	19804
 397.6	19799
 398.2	19795
 398.7	19787
 399.2	19879
 399.8	19742
 400.3	19813
 400.8	19854
 401.3	19811
 401.9	19825
 402.4	19843
 402.9	19829
 403.5	19847
 404.0	19823
 404.5	19760
 405.1	19763
 405.6	19853
 406.1	19819
 406.7	19811
 407.2	19811
 407.7	19884
 408.2	19868
 408.8	19859
 409.3	19875
 409.8	19913
 410.4	19863
 410.9	19861
 411.4	19797
 412.0	19853
 412.5	19897
 413.0	19833
 413.6	19871
 414.1	19827
 414.6	19854
 415.2	19889
 415.7	19811
 416.2	19860
 416.8	19838
 417.3	19807
 417.8	19823
 418.4	19909
 418.9	19829
 419.4	19965
 420.0	19836
 420.5	19891
 421.0	19827
 421.5	19912
 422.1	19877
 422.6	19926
 423.1	19948
 423.7	19905
 424.2	19883
 424.7	19907
 425.3	19882
 425.8	19891
 426.3	19875
 426.9	19927
 427.4	19859
 427.9	19972
 428.5	19896
 429.0	19927
 429.6	19874
 430.1	19948
 430.6	19925
 431.2	19849
 431.7	19943
 432.2	19894
 432.8	19851
 433.3	19951
 433.8	19937
 434.4	19896
 434.9	19898
 435.4	19933
 436.0	19900
 436.5	19882
 437.0	19950
 437.6	19909
 438.1	19961
 438.6	19957
 439.2	19983
 439.7	19961
 440.2	19899
 440.8	19931
 441.3	19927
 441.8	19932
 442.4	19898
 442.9	19923
 443.5	19954
 444.0	19948
 444.5	19975
 445.1	19871
 445.6	19906
 446.1	19923
 446.7	19935
 447.2	19943
 447.7	19912
 448.3	19979
 448.8	19924
 449.3	19955
 449.9	19878
 450.4	19959
 450.9	19983
 451.5	19964
 452.0	19915
 452.6	19921
 453.1	19961
 453.6	19959
 454.2	19825
 454.7	19881
 455.2	19897
 455.8	19930
 456.3	19856
 456.8	19987
 457.4	19895
 457.9	19892
 458.5	19943
 459.0	19891
 459.5	19934
 460.1	19877
 460.6	19926
 461.1	19911
 461.7	19957
 462.2	19903
 462.7	19948
 463.3	19866
 463.8	19940
 464.4	20004
 464.9	19938
 465.4	19999
 466.0	19893
 466.5	19959
 467.0	19878
 467.6	19943
 468.1	20027
 468.7	19944
 469.2	19857
 469.7	19939
 470.3	19913
 470.8	19941
 471.3	19902
 471.9	19849
 472.4	19901
 473.0	19931
 473.5	19936
 474.0	19919
 474.6	19913
 475.1	19894
 475.6	19963
 476.2	19962
 476.7	19926
 477.3	19979
 477.8	19909
 478.3	19828
 478.9	20033
 479.4	19900
 479.9	19900
 480.5	19880
 481.0	19895
 481.6	19907
 482.1	19962
 482.6	19933
 483.2	19930
 483.7	20037
 484.2	19959
 484.8	19775
 485.3	19870
 485.9	19942
 486.4	19897
 486.9	19902
 487.5	19857
 488.0	19849
 488.6	19899
 489.1	19903
 489.6	19954
 490.2	19939
 490.7	19884
 491.2	19855
 491.8	19906
 492.3	19852
 492.9	19899
 493.4	19904
 493.9	19920
 494.5	19923
 495.0	19995
 495.6	19901
 496.1	19923
 496.6	19989
 497.2	19898
 497.7	19853
 498.2	19959
 498.8	19983
 499.3	19887
 499.9	19942
 500.4	19939
 500.9	19915
 501.5	19894
 502.0	19956
 502.6	19924
 503.1	20007
 503.6	19959
 504.2	19896
 504.7	19887
 505.2	19941
 505.8	19915
 506.3	19981
 506.9	19968
 507.4	19911
 507.9	19875
 508.5	19884
 509.0	19907
 509.6	19957
 510.1	19903
 510.6	19930
 511.2	19935
 511.7	19904
 512.2	19961
 512.8	19970
 513.3	19916
 513.9	19895
 514.4	19947
 514.9	20016
 515.5	19903
 516.0	19982
 516.6	19954
 517.1	20003
 517.6	19985
 518.2	19967
 518.7	19900
 519.3	19963
 519.8	20021
 520.3	20022
 520.9	19976
 521.4	19986
 521.9	20053
 522.5	19975
 523.0	20009
 523.6	20058
 524.1	19898
 524.6	19962
 525.2	19983
 525.7	20017
 526.3	19925
 526.8	20020
 527.3	19957
 527.9	19975
 528.4	19952
 528.9	20000
 529.5	20014
 530.0	19979
 530.6	20017
 531.1	20010
 531.6	19904
 532.2	20013
 532.7	19956
 533.3	19970
 533.8	20086
 534.3	20098
 534.9	20081
 535.4	20006
 536.0	20063
 536.5	20091
 537.0	20040
 537.6	20047
 538.1	20081
 538.6	20089
 539.2	20017
 539.7	20018
 540.3	20114
 540.8	20068
 541.3	20011
 541.9	20044
 542.4	20042
 543.0	20100
 543.5	20054
 544.0	20032
 544.6	20084
 545.1	20089
 545.6	20129
 546.2	20113
 546.7	20015
 547.3	20077
 547.8	20058
 548.3	20113
 548.9	20024
 549.4	20031
 550.0	19999
 550.5	20063
 551.0	20117
 551.6	20065
 552.1	20082
 552.6	20084
 553.2	20059
 553.7	20031
 554.3	20075
 554.8	20141
 555.3	19983
 555.9	20062
 556.4	20011
 556.9	20107
 557.5	20129
 558.0	20073
 558.6	20042
 559.1	20117
 559.6	20090
 560.2	20079
 560.7	20071
 561.3	20038
 561.8	20008
 562.3	20121
 562.9	20097
 563.4	20121
 563.9	20103
 564.5	20105
 565.0	20081
 565.6	20105
 566.1	20098
 566.6	20101
 567.2	20078
 567.7	20187
 568.2	20077
 568.8	20097
 569.3	20063
 569.9	20139
 570.4	20127
 570.9	20090
 571.5	20083
 572.0	20067
 572.5	20119
 573.1	20063
 573.6	20112
 574.1	20099
 574.7	20086
 575.2	20055
 575.8	20087
 576.3	20152
 576.8	20109
 577.4	20114
 577.9	20119
 578.4	20068
 579.0	20066
 579.5	20165
 580.1	20074
 580.6	20069
 581.1	20139
 581.7	20148
 582.2	20069
 582.7	20115
 583.3	20147
 583.8	20111
 584.3	20047
 584.9	20103
 585.4	20096
 586.0	20064
 586.5	20093
 587.0	20045
 587.6	20117
 588.1	20063
 588.6	20134
 589.2	20067
 589.7	20083
 590.2	20069
 590.8	20071
 591.3	20095
 591.9	20037
 592.4	20105
 592.9	20043
 593.5	20039
 594.0	20035
 594.5	20059
 595.1	20052
 595.6	20033
 596.1	20099
 596.7	20068
 597.2	20118
 597.7	20060
 598.3	20071
 598.8	20049
 599.3	20072
 599.9	20052
 600.4	20047
 601.0	20065
 601.5	20056
 602.0	20047
 602.6	19996
 603.1	20015
 603.6	20011
 604.2	20123
 604.7	20012
 605.2	20087
 605.8	19991
 606.3	20007
 606.8	20085
 607.4	20049
 607.9	20079
 608.4	20009
 609.0	20043
 609.5	20083
 610.0	20044
 610.6	20141
 611.1	20041
 611.6	20052
 612.2	20044
 612.7	20099
 613.2	20075
 613.8	19989
 614.3	20006
 614.8	20053
 615.4	19955
 615.9	20032
 616.4	20079
 617.0	20013
 617.5	20097
 618.0	20091
 618.6	19992
 619.1	20009
 619.6	20075
 620.2	20043
 620.7	20080
 621.2	20025
 621.8	20053
 622.3	20063
 622.8	19999
 623.4	20021
 623.9	20075
 624.4	20038
 625.0	20030
 625.5	20028
 626.0	20034
 626.6	20081
 627.1	20072
 627.6	20021
 628.2	19986
 628.7	20023
 629.2	20005
 629.8	20043
 630.3	20069
 630.8	20052
 631.4	20044
 631.9	20077
 632.4	19979
 632.9	20017
 633.5	20022
 634.0	19987
 634.5	20097
 635.1	20030
 635.6	20012
 636.1	20009
 636.7	20084
 637.2	20082
 637.7	19993
 638.3	20111
 638.8	20112
 639.3	20130
 639.8	20092
 640.4	20114
 640.9	20147
 641.4	20053
 642.0	20052
 642.5	20083
 643.0	20051
 643.6	20145
 644.1	20100
 644.6	20111
 645.1	20151
 645.7	20127
 646.2	20091
 646.7	20103
 647.3	20131
 647.8	20129
 648.3	20108
 648.9	20137
 649.4	20038
 649.9	20103
 650.4	20110
 651.0	20142
 651.5	20147
 652.0	20199
 652.6	20129
 653.1	20197
 653.6	20098
 654.1	20177
 654.7	20111
 655.2	20186
 655.7	20215
 656.3	20227
 656.8	20151
 657.3	20197
 657.8	20146
 658.4	20121
 658.9	20116
 659.4	20205
 659.9	20183
 660.5	20154
 661.0	20199
 661.5	20239
 662.1	20191
 662.6	20196
 663.1	20148
 663.6	20236
 664.2	20190
 664.7	20151
 665.2	20074
 665.7	20205
 666.3	20173
 666.8	20183
 667.3	20185
 667.8	20145
 668.4	20182
 668.9	20191
 669.4	20177
 669.9	20219
 670.5	20156
 671.0	20173
 671.5	20132
 672.0	20202
 672.6	20207
 673.1	20241
 673.6	20151
 674.1	20195
 674.7	20188
 675.2	20251
 675.7	20102
 676.2	20123
 676.8	20176
 677.3	20211
 677.8	20130
 678.3	20257
 678.9	20191
 679.4	20143
 679.9	20213
 680.4	20230
 681.0	20187
 681.5	20235
 682.0	20205
 682.5	20239
 683.1	20145
 683.6	20213
 684.1	20157
 684.6	20268
 685.1	20199
 685.7	20235
 686.2	20203
 686.7	20162
 687.2	20156
 687.8	20231
 688.3	20171
 688.8	20203
 689.3	20141
 689.8	20175
 690.4	20171
 690.9	20177
 691.4	20173
 691.9	20213
 692.4	20159
 693.0	20231
 693.5	20204
 694.0	20189
 694.5	20181
 695.1	20150
 695.6	20119
 696.1	20189
 696.6	20172
 697.1	20194
 697.7	20222
 698.2	20152
 698.7	20179
 699.2	20137
 699.7	20143
 700.3	20128
 700.8	20112
 701.3	20235
 701.8	20191
 702.3	20139
 702.8	20147
 703.4	20119
 703.9	20138
 704.4	20147
 704.9	20109
 705.4	20117
 706.0	20238
 706.5	20222
 707.0	20141
 707.5	20131
 708.0	20177
 708.5	20129
 709.1	20209
 709.6	20177
 710.1	20151
 710.6	20137
 711.1	20144
 711.7	20176
 712.2	20187
 712.7	20191
 713.2	20183
 713.7	20188
 714.2	20151
 714.8	20239
 715.3	20190
 715.8	20199
 716.3	20214
 716.8	20112
 717.3	20106
 717.8	20225
 718.4	20233
 718.9	20171
 719.4	20254
 719.9	20161
 720.4	20204
 720.9	20212
 721.4	20205
 722.0	20228
 722.5	20209
 723.0	20198
 723.5	20205
 724.0	20162
 724.5	20160
 725.0	20175
 725.6	20099
 726.1	20142
 726.6	20270
 727.1	20205
 727.6	20246
 728.1	20259
 728.6	20210
 729.1	20199
 729.7	20188
 730.2	20217
 730.7	20253
 731.2	20272
 731.7	20265
 732.2	20270
 732.7	20250
 733.2	20302
 733.8	20271
 734.3	20287
 734.8	20246
 735.3	20271
 735.8	20247
 736.3	20212
 736.8	20245
 737.3	20282
 737.8	20226
 738.4	20214
 738.9	20163
 739.4	20253
 739.9	20235
 740.4	20235
 740.9	20232
 741.4	20227
 741.9	20216
 742.4	20238
 742.9	20219
 743.4	20322
 744.0	20237
 744.5	20235
 745.0	20252
 745.5	20339
 746.0	20316
 746.5	20323
 747.0	20272
 747.5	20263
 748.0	20231
 748.5	20257
 749.0	20277
 749.5	20377
 750.0	20209
 750.5	20280
 751.1	20303
 751.6	20302
 752.1	20304
 752.6	20275
 753.1	20313
 753.6	20253
 754.1	20227
 754.6	20284
 755.1	20247
 755.6	20271
 756.1	20189
 756.6	20313
 757.1	20273
 757.6	20271
 758.1	20248
 758.6	20278
 759.1	20212
 759.6	20266
 760.1	20219
 760.7	20194
 761.2	20283
 761.7	20222
 762.2	20225
 762.7	20289
 763.2	20143
 763.7	20253
 764.2	20196
 764.7	20211
 765.2	20253
 765.7	20240
 766.2	20201
 766.7	20267
 767.2	20225
 767.7	20246
 768.2	20244
 768.7	20213
 769.2	20215
 769.7	20279
 770.2	20255
 770.7	20259
 771.2	20253
 771.7	20227
 772.2	20253
 772.7	20307
 773.2	20290
 773.7	20251
 774.2	20205
 774.7	20262
 775.2	20255
 775.7	20237
 776.2	20242
 776.7	20272
 777.2	20195
 777.7	20285
 778.2	20271
 778.7	20316
 779.2	20327
 779.7	20365
 780.2	20207
 780.7	20280
 781.2	20295
 781.7	20372
 782.2	20291
 782.6	20375
 783.1	20388
 783.6	20347
 784.1	20322
 784.6	20310
 785.1	20319
 785.6	20316
 786.1	20355
 786.6	20374
 787.1	20315
 787.6	20327
 788.1	20334
 788.6	20315
 789.1	20312
 789.6	20365
 790.1	20387
 790.6	20385
 791.1	20294
 791.6	20303
 792.0	20338
 792.5	20379
 793.0	20367
 793.5	20373
 794.0	20316
 794.5	20416
 795.0	20409
 795.5	20385
 796.0	20403
 796.5	20359
 797.0	20396
 797.5	20450
 798.0	20309
 798.4	20362
 798.9	20357
 799.4	20390
 799.9	20415
 800.4	20277
 800.9	20393
 801.4	20479
 801.9	20452
 802.4	20386
 802.9	20470
 803.3	20473
 803.8	20447
 804.3	20405
 804.8	20482
 805.3	20447
 805.8	20451
 806.3	20461
 806.8	20457
 807.2	20463
 807.7	20439
 808.2	20485
 808.7	20410
 809.2	20431
 809.7	20377
 810.2	20455
 810.7	20407
 811.1	20433
 811.6	20449
 812.1	20414
 812.6	20387
 813.1	20441
 813.6	20471
 814.1	20456
 814.5	20419
 815.0	20455
 815.5	20430
 816.0	20386
 816.5	20467
 817.0	20422
 817.4	20417
 817.9	20454
 818.4	20397
 818.9	20489
 819.4	20447
 819.9	20437
 820.3	20409
 820.8	20422
 821.3	20435
 821.8	20466
 822.3	20407
 822.7	20393
 823.2	20461
 823.7	20413
 824.2	20425
 824.7	20411
 825.2	20433
 825.6	20420
 826.1	20416
 826.6	20476
 827.1	20470
 827.6	20461
 828.0	20398
 828.5	20378
 829.0	20429
 829.5	20373
 829.9	20380
 830.4	20455
 830.9	20436
 831.4	20462
 831.9	20423
 832.3	20514
 832.8	20457
 833.3	20455
 833.8	20545
 834.2	20541
 834.7	20381
 835.2	20487
 835.7	20489
 836.1	20485
 836.6	20471
 837.1	20481
 837.6	20490
 838.0	20531
 838.5	20563
 839.0	20567
 839.5	20560
 839.9	20474
 840.4	20487
 840.9	20457
 841.4	20508
 841.8	20533
 842.3	20543
 842.8	20569
 843.3	20570
 843.7	20471
 844.2	20459
 844.7	20555
 845.1	20528
 845.6	20450
 846.1	20473
 846.6	20511
 847.0	20408
 847.5	20467
 848.0	20455
 848.4	20504
 848.9	20473
 849.4	20457
 849.8	20491
 850.3	20485
 850.8	20539
 851.3	20507
 851.7	20501
 852.2	20518
 852.7	20509
 853.1	20484
 853.6	20447
 854.1	20493
 854.5	20457
 855.0	20448
 855.5	20448
 855.9	20521
 856.4	20514
 856.9	20427
 857.3	20496
 857.8	20471
 858.3	20521
 858.7	20484
 859.2	20503
 859.7	20495
 860.1	20551
 860.6	20535
 861.1	20479
 861.5	20535
 862.0	20546
 862.4	20526
 862.9	20487
 863.4	20529
 863.8	20537
 864.3	20546
 864.8	20469
 865.2	20521
 865.7	20546
 866.1	20569
 866.6	20487
 867.1	20575
 867.5	20556
 868.0	20535
 868.5	20495
 868.9	20500
 869.4	20610
 869.8	20562
 870.3	20516
 870.8	20587
 871.2	20539
 871.7	20532
 872.1	20485
 872.6	20541
 873.0	20522
 873.5	20613
 874.0	20607
 874.4	20501
 874.9	20542
 875.3	20505
 875.8	20417
 876.2	20212
 876.7	20073
 877.2	19748
 877.6	19359
 878.1	19007
