#xlabel Wavelength (nm)
#ylabel Spectrometer Array Counts
#title Exposure time is 11000 ms
## lambda	counts
 349.8	18709
 350.3	18981
 350.8	19247
 351.3	19454
 351.9	19579
 352.4	19695
 352.9	19769
 353.4	19729
 354.0	19731
 354.5	19777
 355.0	19781
 355.5	19790
 356.0	19747
 356.6	19705
 357.1	19757
 357.6	19727
 358.1	19755
 358.7	19693
 359.2	19702
 359.7	19721
 360.2	19763
 360.8	19721
 361.3	19812
 361.8	19755
 362.3	19783
 362.9	19729
 363.4	19806
 363.9	19805
 364.4	19835
 364.9	19736
 365.5	19808
 366.0	19794
 366.5	19737
 367.0	19783
 367.6	19803
 368.1	19804
 368.6	19733
 369.1	19789
 369.7	19838
 370.2	19753
 370.7	19749
 371.2	19788
 371.8	19846
 372.3	19756
 372.8	19836
 373.3	19843
 373.9	19775
 374.4	19794
 374.9	19841
 375.5	19717
 376.0	19848
 376.5	19801
 377.0	19828
 377.6	19764
 378.1	19835
 378.6	19758
 379.1	19762
 379.7	19734
 380.2	19807
 380.7	19801
 381.2	19755
 381.8	19737
 382.3	19775
 382.8	19746
 383.4	19801
 383.9	19733
 384.4	19891
 384.9	19793
 385.5	19810
 386.0	19804
 386.5	19879
 387.1	19798
 387.6	19818
 388.1	19815
 388.6	19826
 389.2	19803
 389.7	19823
 390.2	19795
 390.8	19882
 391.3	19841
 391.8	19827
 392.3	19801
 392.9	19789
 393.4	19774
 393.9	19836
 394.5	19824
 395.0	19763
 395.5	19780
 396.0	19774
 396.6	19730
 397.1	19825
 397.6	19814
 398.2	19810
 398.7	19806
 399.2	19897
 399.8	19762
 400.3	19825
 400.8	19874
 401.3	19839
 401.9	19848
 402.4	19860
 402.9	19844
 403.5	19866
 404.0	19843
 404.5	19788
 405.1	19783
 405.6	19870
 406.1	19833
 406.7	19827
 407.2	19833
 407.7	19903
 408.2	19891
 408.8	19874
 409.3	19895
 409.8	19934
 410.4	19882
 410.9	19882
 411.4	19810
 412.0	19873
 412.5	19919
 413.0	19856
 413.6	19893
 414.1	19844
 414.6	19874
 415.2	19907
 415.7	19834
 416.2	19881
 416.8	19854
 417.3	19830
 417.8	19844
 418.4	19925
 418.9	19849
 419.4	19983
 420.0	19852
 420.5	19917
 421.0	19851
 421.5	19926
 422.1	19899
 422.6	19943
 423.1	19966
 423.7	19926
 424.2	19899
 424.7	19931
 425.3	19903
 425.8	19921
 426.3	19891
 426.9	19953
 427.4	19883
 427.9	20001
 428.5	19921
 429.0	19947
 429.6	19894
 430.1	19970
 430.6	19953
 431.2	19870
 431.7	19963
 432.2	19915
 432.8	19871
 433.3	19975
 433.8	19959
 434.4	19912
 434.9	19917
 435.4	19954
 436.0	19916
 436.5	19905
 437.0	19971
 437.6	19932
 438.1	19981
 438.6	19979
 439.2	20001
 439.7	19984
 440.2	19923
 440.8	19947
 441.3	19952
 441.8	19951
 442.4	19916
 442.9	19941
 443.5	19980
 444.0	19969
 444.5	19994
 445.1	19901
 445.6	19927
 446.1	19945
 446.7	19957
 447.2	19959
 447.7	19938
 448.3	19999
 448.8	19947
 449.3	19974
 449.9	19897
 450.4	19980
 450.9	20011
 451.5	19988
 452.0	19937
 452.6	19938
 453.1	19982
 453.6	19979
 454.2	19852
 454.7	19906
 455.2	19920
 455.8	19951
 456.3	19881
 456.8	20007
 457.4	19917
 457.9	19917
 458.5	19961
 459.0	19913
 459.5	19954
 460.1	19900
 460.6	19950
 461.1	19931
 461.7	19979
 462.2	19921
 462.7	19968
 463.3	19889
 463.8	19959
 464.4	20030
 464.9	19965
 465.4	20021
 466.0	19906
 466.5	19984
 467.0	19899
 467.6	19971
 468.1	20051
 468.7	19966
 469.2	19879
 469.7	19969
 470.3	19932
 470.8	19962
 471.3	19928
 471.9	19869
 472.4	19915
 473.0	19947
 473.5	19956
 474.0	19939
 474.6	19932
 475.1	19918
 475.6	19980
 476.2	19983
 476.7	19947
 477.3	19999
 477.8	19930
 478.3	19844
 478.9	20053
 479.4	19923
 479.9	19926
 480.5	19899
 481.0	19912
 481.6	19926
 482.1	19977
 482.6	19953
 483.2	19947
 483.7	20061
 484.2	19982
 484.8	19794
 485.3	19890
 485.9	19966
 486.4	19915
 486.9	19919
 487.5	19874
 488.0	19871
 488.6	19924
 489.1	19921
 489.6	19974
 490.2	19963
 490.7	19911
 491.2	19873
 491.8	19923
 492.3	19867
 492.9	19918
 493.4	19929
 493.9	19945
 494.5	19943
 495.0	20015
 495.6	19927
 496.1	19941
 496.6	20005
 497.2	19915
 497.7	19882
 498.2	19974
 498.8	20001
 499.3	19911
 499.9	19965
 500.4	19957
 500.9	19939
 501.5	19917
 502.0	19979
 502.6	19946
 503.1	20023
 503.6	19977
 504.2	19916
 504.7	19907
 505.2	19960
 505.8	19935
 506.3	19994
 506.9	19989
 507.4	19933
 507.9	19887
 508.5	19905
 509.0	19929
 509.6	19978
 510.1	19929
 510.6	19949
 511.2	19956
 511.7	19930
 512.2	19986
 512.8	19987
 513.3	19939
 513.9	19915
 514.4	19965
 514.9	20040
 515.5	19925
 516.0	20005
 516.6	19972
 517.1	20021
 517.6	20003
 518.2	19980
 518.7	19921
 519.3	19988
 519.8	20042
 520.3	20041
 520.9	19995
 521.4	20008
 521.9	20077
 522.5	20001
 523.0	20031
 523.6	20079
 524.1	19921
 524.6	19979
 525.2	20007
 525.7	20037
 526.3	19947
 526.8	20041
 527.3	19983
 527.9	19995
 528.4	19971
 528.9	20023
 529.5	20037
 530.0	20004
 530.6	20042
 531.1	20035
 531.6	19927
 532.2	20037
 532.7	19978
 533.3	19997
 533.8	20110
 534.3	20119
 534.9	20104
 535.4	20028
 536.0	20087
 536.5	20114
 537.0	20058
 537.6	20066
 538.1	20109
 538.6	20112
 539.2	20033
 539.7	20042
 540.3	20136
 540.8	20091
 541.3	20035
 541.9	20059
 542.4	20061
 543.0	20123
 543.5	20076
 544.0	20054
 544.6	20101
 545.1	20107
 545.6	20151
 546.2	20130
 546.7	20037
 547.3	20099
 547.8	20082
 548.3	20133
 548.9	20047
 549.4	20050
 550.0	20024
 550.5	20093
 551.0	20140
 551.6	20081
 552.1	20105
 552.6	20103
 553.2	20082
 553.7	20054
 554.3	20098
 554.8	20167
 555.3	20010
 555.9	20085
 556.4	20039
 556.9	20127
 557.5	20150
 558.0	20097
 558.6	20063
 559.1	20145
 559.6	20116
 560.2	20096
 560.7	20091
 561.3	20062
 561.8	20031
 562.3	20144
 562.9	20115
 563.4	20142
 563.9	20127
 564.5	20127
 565.0	20105
 565.6	20129
 566.1	20121
 566.6	20125
 567.2	20105
 567.7	20214
 568.2	20107
 568.8	20124
 569.3	20084
 569.9	20157
 570.4	20148
 570.9	20114
 571.5	20101
 572.0	20089
 572.5	20144
 573.1	20087
 573.6	20134
 574.1	20119
 574.7	20108
 575.2	20073
 575.8	20103
 576.3	20174
 576.8	20129
 577.4	20135
 577.9	20144
 578.4	20090
 579.0	20087
 579.5	20183
 580.1	20100
 580.6	20093
 581.1	20162
 581.7	20170
 582.2	20092
 582.7	20131
 583.3	20172
 583.8	20132
 584.3	20072
 584.9	20127
 585.4	20115
 586.0	20081
 586.5	20117
 587.0	20060
 587.6	20137
 588.1	20076
 588.6	20159
 589.2	20086
 589.7	20101
 590.2	20089
 590.8	20091
 591.3	20116
 591.9	20060
 592.4	20123
 592.9	20061
 593.5	20059
 594.0	20058
 594.5	20083
 595.1	20073
 595.6	20056
 596.1	20123
 596.7	20088
 597.2	20139
 597.7	20077
 598.3	20094
 598.8	20067
 599.3	20091
 599.9	20070
 600.4	20069
 601.0	20085
 601.5	20077
 602.0	20071
 602.6	20015
 603.1	20037
 603.6	20032
 604.2	20145
 604.7	20035
 605.2	20108
 605.8	20015
 606.3	20034
 606.8	20103
 607.4	20068
 607.9	20098
 608.4	20036
 609.0	20067
 609.5	20108
 610.0	20070
 610.6	20165
 611.1	20062
 611.6	20077
 612.2	20066
 612.7	20118
 613.2	20095
 613.8	20008
 614.3	20027
 614.8	20073
 615.4	19983
 615.9	20055
 616.4	20103
 617.0	20027
 617.5	20118
 618.0	20113
 618.6	20015
 619.1	20031
 619.6	20089
 620.2	20064
 620.7	20107
 621.2	20048
 621.8	20074
 622.3	20085
 622.8	20019
 623.4	20046
 623.9	20097
 624.4	20056
 625.0	20050
 625.5	20051
 626.0	20057
 626.6	20102
 627.1	20095
 627.6	20041
 628.2	20010
 628.7	20038
 629.2	20023
 629.8	20063
 630.3	20085
 630.8	20070
 631.4	20063
 631.9	20100
 632.4	19995
 632.9	20032
 633.5	20039
 634.0	20010
 634.5	20119
 635.1	20057
 635.6	20035
 636.1	20031
 636.7	20105
 637.2	20106
 637.7	20019
 638.3	20133
 638.8	20132
 639.3	20155
 639.8	20110
 640.4	20133
 640.9	20168
 641.4	20075
 642.0	20075
 642.5	20097
 643.0	20071
 643.6	20163
 644.1	20122
 644.6	20134
 645.1	20169
 645.7	20149
 646.2	20114
 646.7	20126
 647.3	20156
 647.8	20158
 648.3	20130
 648.9	20159
 649.4	20061
 649.9	20131
 650.4	20132
 651.0	20166
 651.5	20175
 652.0	20219
 652.6	20151
 653.1	20220
 653.6	20119
 654.1	20201
 654.7	20134
 655.2	20209
 655.7	20240
 656.3	20246
 656.8	20177
 657.3	20216
 657.8	20163
 658.4	20139
 658.9	20138
 659.4	20226
 659.9	20205
 660.5	20176
 661.0	20219
 661.5	20263
 662.1	20213
 662.6	20219
 663.1	20171
 663.6	20255
 664.2	20213
 664.7	20179
 665.2	20100
 665.7	20222
 666.3	20195
 666.8	20205
 667.3	20211
 667.8	20169
 668.4	20202
 668.9	20210
 669.4	20199
 669.9	20239
 670.5	20176
 671.0	20196
 671.5	20153
 672.0	20227
 672.6	20231
 673.1	20263
 673.6	20172
 674.1	20217
 674.7	20215
 675.2	20272
 675.7	20126
 676.2	20143
 676.8	20200
 677.3	20228
 677.8	20150
 678.3	20281
 678.9	20214
 679.4	20159
 679.9	20235
 680.4	20247
 681.0	20207
 681.5	20261
 682.0	20231
 682.5	20262
 683.1	20169
 683.6	20240
 684.1	20179
 684.6	20286
 685.1	20224
 685.7	20254
 686.2	20221
 686.7	20185
 687.2	20179
 687.8	20257
 688.3	20192
 688.8	20227
 689.3	20163
 689.8	20198
 690.4	20191
 690.9	20202
 691.4	20195
 691.9	20230
 692.4	20177
 693.0	20257
 693.5	20221
 694.0	20211
 694.5	20199
 695.1	20173
 695.6	20138
 696.1	20216
 696.6	20197
 697.1	20213
 697.7	20247
 698.2	20175
 698.7	20202
 699.2	20159
 699.7	20168
 700.3	20151
 700.8	20130
 701.3	20257
 701.8	20214
 702.3	20163
 702.8	20167
 703.4	20137
 703.9	20167
 704.4	20165
 704.9	20128
 705.4	20144
 706.0	20257
 706.5	20249
 707.0	20167
 707.5	20155
 708.0	20196
 708.5	20153
 709.1	20235
 709.6	20195
 710.1	20173
 710.6	20149
 711.1	20167
 711.7	20199
 712.2	20209
 712.7	20223
 713.2	20205
 713.7	20213
 714.2	20175
 714.8	20265
 715.3	20213
 715.8	20219
 716.3	20237
 716.8	20136
 717.3	20127
 717.8	20246
 718.4	20255
 718.9	20193
 719.4	20277
 719.9	20183
 720.4	20231
 720.9	20242
 721.4	20232
 722.0	20251
 722.5	20233
 723.0	20216
 723.5	20229
 724.0	20185
 724.5	20181
 725.0	20191
 725.6	20113
 726.1	20169
 726.6	20289
 727.1	20225
 727.6	20266
 728.1	20283
 728.6	20234
 729.1	20216
 729.7	20204
 730.2	20239
 730.7	20271
 731.2	20295
 731.7	20286
 732.2	20291
 732.7	20271
 733.2	20324
 733.8	20295
 734.3	20309
 734.8	20267
 735.3	20290
 735.8	20271
 736.3	20236
 736.8	20266
 737.3	20298
 737.8	20251
 738.4	20241
 738.9	20185
 739.4	20280
 739.9	20251
 740.4	20259
 740.9	20255
 741.4	20245
 741.9	20240
 742.4	20261
 742.9	20241
 743.4	20340
 744.0	20260
 744.5	20257
 745.0	20275
 745.5	20363
 746.0	20340
 746.5	20341
 747.0	20293
 747.5	20282
 748.0	20257
 748.5	20271
 749.0	20295
 749.5	20396
 750.0	20232
 750.5	20307
 751.1	20319
 751.6	20325
 752.1	20320
 752.6	20293
 753.1	20336
 753.6	20273
 754.1	20249
 754.6	20306
 755.1	20272
 755.6	20288
 756.1	20212
 756.6	20332
 757.1	20301
 757.6	20294
 758.1	20276
 758.6	20299
 759.1	20235
 759.6	20284
 760.1	20242
 760.7	20216
 761.2	20303
 761.7	20248
 762.2	20248
 762.7	20313
 763.2	20163
 763.7	20275
 764.2	20218
 764.7	20225
 765.2	20276
 765.7	20261
 766.2	20222
 766.7	20290
 767.2	20245
 767.7	20267
 768.2	20259
 768.7	20236
 769.2	20241
 769.7	20298
 770.2	20273
 770.7	20279
 771.2	20271
 771.7	20255
 772.2	20272
 772.7	20325
 773.2	20316
 773.7	20273
 774.2	20223
 774.7	20283
 775.2	20279
 775.7	20259
 776.2	20259
 776.7	20297
 777.2	20215
 777.7	20307
 778.2	20297
 778.7	20341
 779.2	20350
 779.7	20389
 780.2	20227
 780.7	20305
 781.2	20312
 781.7	20393
 782.2	20311
 782.6	20397
 783.1	20407
 783.6	20364
 784.1	20341
 784.6	20327
 785.1	20341
 785.6	20335
 786.1	20378
 786.6	20398
 787.1	20337
 787.6	20350
 788.1	20348
 788.6	20333
 789.1	20337
 789.6	20385
 790.1	20406
 790.6	20411
 791.1	20318
 791.6	20329
 792.0	20359
 792.5	20399
 793.0	20393
 793.5	20395
 794.0	20330
 794.5	20441
 795.0	20433
 795.5	20400
 796.0	20429
 796.5	20386
 797.0	20421
 797.5	20471
 798.0	20333
 798.4	20387
 798.9	20380
 799.4	20409
 799.9	20431
 800.4	20297
 800.9	20411
 801.4	20495
 801.9	20469
 802.4	20409
 802.9	20488
 803.3	20499
 803.8	20475
 804.3	20428
 804.8	20510
 805.3	20470
 805.8	20471
 806.3	20484
 806.8	20478
 807.2	20487
 807.7	20465
 808.2	20507
 808.7	20431
 809.2	20451
 809.7	20402
 810.2	20479
 810.7	20432
 811.1	20452
 811.6	20472
 812.1	20435
 812.6	20409
 813.1	20462
 813.6	20491
 814.1	20476
 814.5	20444
 815.0	20474
 815.5	20447
 816.0	20406
 816.5	20487
 817.0	20445
 817.4	20441
 817.9	20479
 818.4	20417
 818.9	20516
 819.4	20474
 819.9	20459
 820.3	20430
 820.8	20443
 821.3	20457
 821.8	20486
 822.3	20423
 822.7	20405
 823.2	20481
 823.7	20434
 824.2	20449
 824.7	20429
 825.2	20457
 825.6	20434
 826.1	20431
 826.6	20493
 827.1	20485
 827.6	20481
 828.0	20417
 828.5	20401
 829.0	20451
 829.5	20390
 829.9	20405
 830.4	20473
 830.9	20457
 831.4	20487
 831.9	20442
 832.3	20536
 832.8	20473
 833.3	20476
 833.8	20561
 834.2	20561
 834.7	20401
 835.2	20508
 835.7	20507
 836.1	20507
 836.6	20490
 837.1	20499
 837.6	20508
 838.0	20554
 838.5	20584
 839.0	20586
 839.5	20575
 839.9	20496
 840.4	20507
 840.9	20479
 841.4	20523
 841.8	20552
 842.3	20565
 842.8	20593
 843.3	20594
 843.7	20490
 844.2	20476
 844.7	20572
 845.1	20549
 845.6	20468
 846.1	20498
 846.6	20528
 847.0	20430
 847.5	20490
 848.0	20481
 848.4	20523
 848.9	20492
 849.4	20484
 849.8	20506
 850.3	20506
 850.8	20559
 851.3	20523
 851.7	20528
 852.2	20534
 852.7	20527
 853.1	20511
 853.6	20465
 854.1	20517
 854.5	20478
 855.0	20471
 855.5	20469
 855.9	20539
 856.4	20534
 856.9	20451
 857.3	20516
 857.8	20493
 858.3	20542
 858.7	20501
 859.2	20527
 859.7	20519
 860.1	20573
 860.6	20549
 861.1	20501
 861.5	20549
 862.0	20563
 862.4	20544
 862.9	20505
 863.4	20545
 863.8	20556
 864.3	20566
 864.8	20483
 865.2	20541
 865.7	20565
 866.1	20587
 866.6	20502
 867.1	20590
 867.5	20578
 868.0	20558
 868.5	20517
 868.9	20524
 869.4	20636
 869.8	20593
 870.3	20548
 870.8	20622
 871.2	20571
 871.7	20567
 872.1	20523
 872.6	20581
 873.0	20562
 873.5	20657
 874.0	20657
 874.4	20557
 874.9	20614
 875.3	20589
 875.8	20509
 876.2	20308
 876.7	20166
 877.2	19824
 877.6	19407
 878.1	19011
