#xlabel Wavelength (nm)
#ylabel Spectrometer Array Counts
#title Exposure time is 11000 ms
## lambda	counts
 349.8	18899
 350.3	19157
 350.8	19415
 351.3	19629
 351.9	19764
 352.4	19898
 352.9	19998
 353.4	19973
 354.0	19990
 354.5	20039
 355.0	20051
 355.5	20071
 356.0	20030
 356.6	19994
 357.1	20047
 357.6	20021
 358.1	20047
 358.7	19988
 359.2	20005
 359.7	20023
 360.2	20071
 360.8	20038
 361.3	20137
 361.8	20084
 362.3	20117
 362.9	20076
 363.4	20160
 363.9	20160
 364.4	20197
 364.9	20099
 365.5	20184
 366.0	20169
 366.5	20127
 367.0	20175
 367.6	20206
 368.1	20215
 368.6	20149
 369.1	20211
 369.7	20266
 370.2	20188
 370.7	20197
 371.2	20242
 371.8	20309
 372.3	20230
 372.8	20314
 373.3	20331
 373.9	20272
 374.4	20303
 374.9	20358
 375.5	20245
 376.0	20386
 376.5	20352
 377.0	20387
 377.6	20339
 378.1	20424
 378.6	20363
 379.1	20376
 379.7	20365
 380.2	20451
 380.7	20458
 381.2	20425
 381.8	20421
 382.3	20465
 382.8	20450
 383.4	20510
 383.9	20462
 384.4	20621
 384.9	20527
 385.5	20550
 386.0	20556
 386.5	20635
 387.1	20566
 387.6	20593
 388.1	20595
 388.6	20628
 389.2	20614
 389.7	20646
 390.2	20635
 390.8	20745
 391.3	20723
 391.8	20727
 392.3	20723
 392.9	20735
 393.4	20741
 393.9	20826
 394.5	20839
 395.0	20800
 395.5	20836
 396.0	20845
 396.6	20819
 397.1	20929
 397.6	20931
 398.2	20937
 398.7	20941
 399.2	21037
 399.8	20910
 400.3	20981
 400.8	21031
 401.3	21003
 401.9	21028
 402.4	21055
 402.9	21047
 403.5	21089
 404.0	21089
 404.5	21037
 405.1	21061
 405.6	21174
 406.1	21161
 406.7	21180
 407.2	21201
 407.7	21304
 408.2	21306
 408.8	21325
 409.3	21373
 409.8	21431
 410.4	21406
 410.9	21429
 411.4	21379
 412.0	21465
 412.5	21527
 413.0	21479
 413.6	21537
 414.1	21509
 414.6	21552
 415.2	21608
 415.7	21553
 416.2	21618
 416.8	21612
 417.3	21607
 417.8	21638
 418.4	21744
 418.9	21690
 419.4	21841
 420.0	21726
 420.5	21808
 421.0	21754
 421.5	21858
 422.1	21832
 422.6	21901
 423.1	21938
 423.7	21914
 424.2	21903
 424.7	21948
 425.3	21937
 425.8	21965
 426.3	21952
 426.9	22031
 427.4	21975
 427.9	22099
 428.5	22051
 429.0	22103
 429.6	22081
 430.1	22179
 430.6	22205
 431.2	22167
 431.7	22290
 432.2	22285
 432.8	22285
 433.3	22429
 433.8	22457
 434.4	22449
 434.9	22487
 435.4	22570
 436.0	22564
 436.5	22577
 437.0	22679
 437.6	22667
 438.1	22731
 438.6	22746
 439.2	22782
 439.7	22777
 440.2	22719
 440.8	22751
 441.3	22761
 441.8	22766
 442.4	22734
 442.9	22768
 443.5	22803
 444.0	22797
 444.5	22826
 445.1	22739
 445.6	22783
 446.1	22829
 446.7	22860
 447.2	22887
 447.7	22893
 448.3	22995
 448.8	22980
 449.3	23051
 449.9	23025
 450.4	23167
 450.9	23239
 451.5	23275
 452.0	23287
 452.6	23342
 453.1	23445
 453.6	23494
 454.2	23411
 454.7	23517
 455.2	23581
 455.8	23659
 456.3	23623
 456.8	23771
 457.4	23715
 457.9	23743
 458.5	23795
 459.0	23762
 459.5	23813
 460.1	23772
 460.6	23816
 461.1	23808
 461.7	23859
 462.2	23812
 462.7	23850
 463.3	23777
 463.8	23851
 464.4	23927
 464.9	23880
 465.4	23961
 466.0	23875
 466.5	23963
 467.0	23907
 467.6	23996
 468.1	24109
 468.7	24064
 469.2	24019
 469.7	24142
 470.3	24147
 470.8	24218
 471.3	24218
 471.9	24213
 472.4	24293
 473.0	24358
 473.5	24404
 474.0	24424
 474.6	24455
 475.1	24485
 475.6	24577
 476.2	24607
 476.7	24604
 477.3	24686
 477.8	24647
 478.3	24581
 478.9	24824
 479.4	24733
 479.9	24762
 480.5	24776
 481.0	24826
 481.6	24875
 482.1	24968
 482.6	24971
 483.2	25015
 483.7	25145
 484.2	25123
 484.8	24983
 485.3	25101
 485.9	25198
 486.4	25193
 486.9	25242
 487.5	25218
 488.0	25258
 488.6	25333
 489.1	25363
 489.6	25431
 490.2	25451
 490.7	25425
 491.2	25401
 491.8	25483
 492.3	25432
 492.9	25494
 493.4	25506
 493.9	25530
 494.5	25525
 495.0	25588
 495.6	25507
 496.1	25512
 496.6	25559
 497.2	25473
 497.7	25443
 498.2	25530
 498.8	25539
 499.3	25467
 499.9	25522
 500.4	25526
 500.9	25515
 501.5	25533
 502.0	25626
 502.6	25631
 503.1	25747
 503.6	25743
 504.2	25735
 504.7	25784
 505.2	25893
 505.8	25919
 506.3	26062
 506.9	26131
 507.4	26154
 507.9	26181
 508.5	26275
 509.0	26378
 509.6	26513
 510.1	26529
 510.6	26623
 511.2	26691
 511.7	26733
 512.2	26851
 512.8	26915
 513.3	26925
 513.9	26941
 514.4	27029
 514.9	27133
 515.5	27045
 516.0	27128
 516.6	27092
 517.1	27137
 517.6	27108
 518.2	27067
 518.7	26987
 519.3	27023
 519.8	27027
 520.3	26994
 520.9	26929
 521.4	26914
 521.9	26945
 522.5	26831
 523.0	26819
 523.6	26846
 524.1	26684
 524.6	26731
 525.2	26742
 525.7	26787
 526.3	26723
 526.8	26828
 527.3	26786
 527.9	26833
 528.4	26839
 528.9	26923
 529.5	26974
 530.0	26995
 530.6	27087
 531.1	27134
 531.6	27092
 532.2	27264
 532.7	27281
 533.3	27378
 533.8	27552
 534.3	27651
 534.9	27707
 535.4	27731
 536.0	27855
 536.5	27943
 537.0	27977
 537.6	28047
 538.1	28154
 538.6	28218
 539.2	28197
 539.7	28270
 540.3	28395
 540.8	28401
 541.3	28383
 541.9	28451
 542.4	28467
 543.0	28544
 543.5	28514
 544.0	28501
 544.6	28540
 545.1	28557
 545.6	28581
 546.2	28565
 546.7	28465
 547.3	28526
 547.8	28501
 548.3	28528
 548.9	28431
 549.4	28425
 550.0	28384
 550.5	28443
 551.0	28477
 551.6	28419
 552.1	28425
 552.6	28430
 553.2	28378
 553.7	28357
 554.3	28395
 554.8	28473
 555.3	28328
 555.9	28401
 556.4	28387
 556.9	28495
 557.5	28533
 558.0	28508
 558.6	28513
 559.1	28594
 559.6	28597
 560.2	28634
 560.7	28661
 561.3	28652
 561.8	28651
 562.3	28802
 562.9	28799
 563.4	28858
 563.9	28861
 564.5	28897
 565.0	28901
 565.6	28934
 566.1	28942
 566.6	28956
 567.2	28959
 567.7	29062
 568.2	28999
 568.8	29009
 569.3	28999
 569.9	29062
 570.4	29046
 570.9	29035
 571.5	29039
 572.0	29045
 572.5	29107
 573.1	29061
 573.6	29139
 574.1	29137
 574.7	29156
 575.2	29147
 575.8	29210
 576.3	29310
 576.8	29291
 577.4	29326
 577.9	29363
 578.4	29362
 579.0	29399
 579.5	29538
 580.1	29483
 580.6	29528
 581.1	29640
 581.7	29690
 582.2	29667
 582.7	29727
 583.3	29791
 583.8	29797
 584.3	29767
 584.9	29847
 585.4	29871
 586.0	29867
 586.5	29921
 587.0	29917
 587.6	30009
 588.1	29982
 588.6	30054
 589.2	30012
 589.7	30039
 590.2	30039
 590.8	30031
 591.3	30055
 591.9	29990
 592.4	30039
 592.9	29962
 593.5	29939
 594.0	29914
 594.5	29914
 595.1	29855
 595.6	29809
 596.1	29836
 596.7	29785
 597.2	29797
 597.7	29708
 598.3	29700
 598.8	29660
 599.3	29637
 599.9	29572
 600.4	29550
 601.0	29541
 601.5	29520
 602.0	29491
 602.6	29435
 603.1	29459
 603.6	29459
 604.2	29551
 604.7	29476
 605.2	29551
 605.8	29471
 606.3	29510
 606.8	29590
 607.4	29602
 607.9	29666
 608.4	29631
 609.0	29695
 609.5	29763
 610.0	29764
 610.6	29887
 611.1	29826
 611.6	29915
 612.2	29945
 612.7	30026
 613.2	30065
 613.8	30031
 614.3	30118
 614.8	30191
 615.4	30183
 615.9	30332
 616.4	30434
 617.0	30428
 617.5	30563
 618.0	30633
 618.6	30642
 619.1	30735
 619.6	30853
 620.2	30938
 620.7	31068
 621.2	31095
 621.8	31183
 622.3	31273
 622.8	31299
 623.4	31368
 623.9	31465
 624.4	31479
 625.0	31507
 625.5	31519
 626.0	31546
 626.6	31613
 627.1	31591
 627.6	31542
 628.2	31511
 628.7	31551
 629.2	31530
 629.8	31533
 630.3	31517
 630.8	31483
 631.4	31425
 631.9	31415
 632.4	31265
 632.9	31245
 633.5	31209
 634.0	31129
 634.5	31144
 635.1	31049
 635.6	31001
 636.1	30937
 636.7	30920
 637.2	30884
 637.7	30746
 638.3	30817
 638.8	30759
 639.3	30756
 639.8	30653
 640.4	30647
 640.9	30645
 641.4	30543
 642.0	30503
 642.5	30499
 643.0	30459
 643.6	30546
 644.1	30492
 644.6	30503
 645.1	30512
 645.7	30520
 646.2	30468
 646.7	30495
 647.3	30519
 647.8	30552
 648.3	30524
 648.9	30575
 649.4	30501
 649.9	30588
 650.4	30623
 651.0	30690
 651.5	30727
 652.0	30802
 652.6	30779
 653.1	30882
 653.6	30834
 654.1	30921
 654.7	30913
 655.2	31027
 655.7	31086
 656.3	31129
 656.8	31113
 657.3	31187
 657.8	31171
 658.4	31211
 658.9	31253
 659.4	31336
 659.9	31357
 660.5	31354
 661.0	31411
 661.5	31468
 662.1	31447
 662.6	31470
 663.1	31444
 663.6	31534
 664.2	31490
 664.7	31471
 665.2	31410
 665.7	31529
 666.3	31481
 666.8	31480
 667.3	31482
 667.8	31447
 668.4	31453
 668.9	31458
 669.4	31430
 669.9	31436
 670.5	31363
 671.0	31373
 671.5	31322
 672.0	31355
 672.6	31331
 673.1	31364
 673.6	31251
 674.1	31269
 674.7	31249
 675.2	31281
 675.7	31143
 676.2	31117
 676.8	31171
 677.3	31161
 677.8	31083
 678.3	31165
 678.9	31086
 679.4	31007
 679.9	31063
 680.4	31043
 681.0	31001
 681.5	31023
 682.0	30963
 682.5	30997
 683.1	30892
 683.6	30918
 684.1	30857
 684.6	30947
 685.1	30889
 685.7	30894
 686.2	30878
 686.7	30829
 687.2	30818
 687.8	30877
 688.3	30819
 688.8	30835
 689.3	30777
 689.8	30813
 690.4	30791
 690.9	30812
 691.4	30833
 691.9	30832
 692.4	30815
 693.0	30884
 693.5	30851
 694.0	30841
 694.5	30833
 695.1	30813
 695.6	30774
 696.1	30848
 696.6	30834
 697.1	30862
 697.7	30882
 698.2	30809
 698.7	30837
 699.2	30799
 699.7	30805
 700.3	30759
 700.8	30733
 701.3	30821
 701.8	30777
 702.3	30718
 702.8	30717
 703.4	30696
 703.9	30671
 704.4	30634
 704.9	30590
 705.4	30579
 706.0	30638
 706.5	30605
 707.0	30511
 707.5	30477
 708.0	30487
 708.5	30409
 709.1	30458
 709.6	30398
 710.1	30328
 710.6	30288
 711.1	30250
 711.7	30245
 712.2	30199
 712.7	30190
 713.2	30126
 713.7	30093
 714.2	30021
 714.8	30070
 715.3	29984
 715.8	29937
 716.3	29919
 716.8	29807
 717.3	29772
 717.8	29848
 718.4	29843
 718.9	29763
 719.4	29843
 719.9	29734
 720.4	29778
 720.9	29801
 721.4	29795
 722.0	29829
 722.5	29826
 723.0	29832
 723.5	29865
 724.0	29843
 724.5	29847
 725.0	29897
 725.6	29851
 726.1	29923
 726.6	30047
 727.1	30005
 727.6	30065
 728.1	30097
 728.6	30072
 729.1	30079
 729.7	30082
 730.2	30116
 730.7	30158
 731.2	30197
 731.7	30197
 732.2	30226
 732.7	30207
 733.2	30264
 733.8	30235
 734.3	30273
 734.8	30265
 735.3	30309
 735.8	30313
 736.3	30307
 736.8	30374
 737.3	30434
 737.8	30392
 738.4	30399
 738.9	30355
 739.4	30463
 739.9	30449
 740.4	30489
 740.9	30461
 741.4	30467
 741.9	30459
 742.4	30484
 742.9	30473
 743.4	30549
 744.0	30454
 744.5	30447
 745.0	30451
 745.5	30519
 746.0	30486
 746.5	30490
 747.0	30419
 747.5	30395
 748.0	30363
 748.5	30379
 749.0	30375
 749.5	30445
 750.0	30274
 750.5	30301
 751.1	30293
 751.6	30270
 752.1	30233
 752.6	30185
 753.1	30207
 753.6	30123
 754.1	30078
 754.6	30097
 755.1	30029
 755.6	30021
 756.1	29912
 756.6	29980
 757.1	29922
 757.6	29884
 758.1	29825
 758.6	29798
 759.1	29697
 759.6	29721
 760.1	29639
 760.7	29561
 761.2	29615
 761.7	29545
 762.2	29500
 762.7	29511
 763.2	29366
 763.7	29413
 764.2	29317
 764.7	29285
 765.2	29286
 765.7	29213
 766.2	29151
 766.7	29155
 767.2	29068
 767.7	29037
 768.2	28993
 768.7	28931
 769.2	28886
 769.7	28901
 770.2	28853
 770.7	28829
 771.2	28773
 771.7	28732
 772.2	28725
 772.7	28747
 773.2	28708
 773.7	28639
 774.2	28573
 774.7	28596
 775.2	28553
 775.7	28527
 776.2	28497
 776.7	28515
 777.2	28424
 777.7	28484
 778.2	28447
 778.7	28481
 779.2	28475
 779.7	28493
 780.2	28323
 780.7	28377
 781.2	28368
 781.7	28416
 782.2	28344
 782.6	28405
 783.1	28396
 783.6	28354
 784.1	28303
 784.6	28287
 785.1	28295
 785.6	28294
 786.1	28301
 786.6	28305
 787.1	28247
 787.6	28233
 788.1	28215
 788.6	28195
 789.1	28167
 789.6	28187
 790.1	28193
 790.6	28174
 791.1	28061
 791.6	28048
 792.0	28038
 792.5	28057
 793.0	28013
 793.5	27989
 794.0	27915
 794.5	27981
 795.0	27915
 795.5	27877
 796.0	27863
 796.5	27781
 797.0	27775
 797.5	27788
 798.0	27605
 798.4	27611
 798.9	27566
 799.4	27541
 799.9	27521
 800.4	27347
 800.9	27409
 801.4	27426
 801.9	27351
 802.4	27231
 802.9	27249
 803.3	27210
 803.8	27132
 804.3	27051
 804.8	27065
 805.3	26981
 805.8	26919
 806.3	26879
 806.8	26825
 807.2	26776
 807.7	26712
 808.2	26690
 808.7	26577
 809.2	26546
 809.7	26443
 810.2	26468
 810.7	26368
 811.1	26342
 811.6	26311
 812.1	26224
 812.6	26149
 813.1	26163
 813.6	26146
 814.1	26107
 814.5	26029
 815.0	26018
 815.5	25937
 816.0	25871
 816.5	25895
 817.0	25819
 817.4	25785
 817.9	25783
 818.4	25683
 818.9	25744
 819.4	25678
 819.9	25628
 820.3	25571
 820.8	25549
 821.3	25538
 821.8	25520
 822.3	25437
 822.7	25398
 823.2	25442
 823.7	25375
 824.2	25360
 824.7	25317
 825.2	25315
 825.6	25269
 826.1	25239
 826.6	25282
 827.1	25246
 827.6	25224
 828.0	25150
 828.5	25112
 829.0	25134
 829.5	25066
 829.9	25055
 830.4	25098
 830.9	25065
 831.4	25080
 831.9	25019
 832.3	25081
 832.8	25002
 833.3	25001
 833.8	25062
 834.2	25052
 834.7	24885
 835.2	24968
 835.7	24957
 836.1	24935
 836.6	24908
 837.1	24900
 837.6	24902
 838.0	24923
 838.5	24939
 839.0	24935
 839.5	24913
 839.9	24825
 840.4	24824
 840.9	24779
 841.4	24805
 841.8	24823
 842.3	24821
 842.8	24831
 843.3	24816
 843.7	24700
 844.2	24679
 844.7	24752
 845.1	24718
 845.6	24626
 846.1	24646
 846.6	24665
 847.0	24554
 847.5	24596
 848.0	24562
 848.4	24580
 848.9	24531
 849.4	24499
 849.8	24505
 850.3	24487
 850.8	24522
 851.3	24472
 851.7	24452
 852.2	24432
 852.7	24419
 853.1	24383
 853.6	24315
 854.1	24340
 854.5	24287
 855.0	24263
 855.5	24231
 855.9	24278
 856.4	24240
 856.9	24148
 857.3	24181
 857.8	24127
 858.3	24135
 858.7	24066
 859.2	24079
 859.7	24066
 860.1	24107
 860.6	24059
 861.1	23973
 861.5	23999
 862.0	23976
 862.4	23929
 862.9	23866
 863.4	23880
 863.8	23865
 864.3	23839
 864.8	23737
 865.2	23757
 865.7	23752
 866.1	23759
 866.6	23644
 867.1	23705
 867.5	23681
 868.0	23637
 868.5	23576
 868.9	23553
 869.4	23645
 869.8	23590
 870.3	23537
 870.8	23601
 871.2	23551
 871.7	23540
 872.1	23490
 872.6	23534
 873.0	23499
 873.5	23569
 874.0	23542
 874.4	23409
 874.9	23415
 875.3	23350
 875.8	23217
 876.2	22968
 876.7	22783
 877.2	22411
 877.6	21966
 878.1	21538
