#xlabel Wavelength (nm)
#ylabel Spectrometer Array Counts
#title Exposure time is 11000 ms
## lambda	counts
 349.8	18729
 350.3	19013
 350.8	19280
 351.3	19484
 351.9	19594
 352.4	19712
 352.9	19771
 353.4	19725
 354.0	19723
 354.5	19760
 355.0	19758
 355.5	19772
 356.0	19725
 356.6	19691
 357.1	19744
 357.6	19716
 358.1	19743
 358.7	19684
 359.2	19693
 359.7	19714
 360.2	19750
 360.8	19713
 361.3	19811
 361.8	19748
 362.3	19776
 362.9	19726
 363.4	19805
 363.9	19797
 364.4	19830
 364.9	19731
 365.5	19806
 366.0	19786
 366.5	19735
 367.0	19776
 367.6	19800
 368.1	19802
 368.6	19727
 369.1	19787
 369.7	19833
 370.2	19747
 370.7	19745
 371.2	19788
 371.8	19841
 372.3	19751
 372.8	19832
 373.3	19836
 373.9	19776
 374.4	19792
 374.9	19838
 375.5	19713
 376.0	19842
 376.5	19798
 377.0	19823
 377.6	19761
 378.1	19831
 378.6	19758
 379.1	19755
 379.7	19727
 380.2	19803
 380.7	19794
 381.2	19749
 381.8	19736
 382.3	19769
 382.8	19746
 383.4	19791
 383.9	19735
 384.4	19895
 384.9	19790
 385.5	19806
 386.0	19802
 386.5	19874
 387.1	19794
 387.6	19816
 388.1	19811
 388.6	19824
 389.2	19801
 389.7	19817
 390.2	19792
 390.8	19876
 391.3	19838
 391.8	19822
 392.3	19795
 392.9	19785
 393.4	19761
 393.9	19829
 394.5	19824
 395.0	19757
 395.5	19777
 396.0	19770
 396.6	19729
 397.1	19818
 397.6	19810
 398.2	19804
 398.7	19806
 399.2	19897
 399.8	19759
 400.3	19821
 400.8	19874
 401.3	19828
 401.9	19845
 402.4	19857
 402.9	19842
 403.5	19861
 404.0	19840
 404.5	19779
 405.1	19778
 405.6	19868
 406.1	19830
 406.7	19827
 407.2	19827
 407.7	19904
 408.2	19884
 408.8	19875
 409.3	19893
 409.8	19933
 410.4	19874
 410.9	19875
 411.4	19808
 412.0	19867
 412.5	19915
 413.0	19853
 413.6	19891
 414.1	19838
 414.6	19865
 415.2	19907
 415.7	19831
 416.2	19873
 416.8	19853
 417.3	19826
 417.8	19837
 418.4	19922
 418.9	19844
 419.4	19981
 420.0	19849
 420.5	19913
 421.0	19846
 421.5	19924
 422.1	19891
 422.6	19935
 423.1	19962
 423.7	19917
 424.2	19895
 424.7	19925
 425.3	19893
 425.8	19913
 426.3	19889
 426.9	19943
 427.4	19880
 427.9	19993
 428.5	19913
 429.0	19946
 429.6	19887
 430.1	19967
 430.6	19948
 431.2	19867
 431.7	19962
 432.2	19912
 432.8	19868
 433.3	19962
 433.8	19953
 434.4	19909
 434.9	19908
 435.4	19944
 436.0	19912
 436.5	19896
 437.0	19964
 437.6	19929
 438.1	19977
 438.6	19977
 439.2	19997
 439.7	19976
 440.2	19915
 440.8	19942
 441.3	19948
 441.8	19946
 442.4	19911
 442.9	19937
 443.5	19977
 444.0	19969
 444.5	19991
 445.1	19894
 445.6	19923
 446.1	19944
 446.7	19953
 447.2	19959
 447.7	19937
 448.3	19995
 448.8	19942
 449.3	19968
 449.9	19895
 450.4	19977
 450.9	20003
 451.5	19983
 452.0	19939
 452.6	19937
 453.1	19978
 453.6	19977
 454.2	19840
 454.7	19903
 455.2	19915
 455.8	19947
 456.3	19880
 456.8	20000
 457.4	19909
 457.9	19919
 458.5	19959
 459.0	19912
 459.5	19944
 460.1	19890
 460.6	19945
 461.1	19925
 461.7	19973
 462.2	19917
 462.7	19967
 463.3	19885
 463.8	19958
 464.4	20027
 464.9	19962
 465.4	20025
 466.0	19909
 466.5	19979
 467.0	19898
 467.6	19968
 468.1	20045
 468.7	19963
 469.2	19879
 469.7	19966
 470.3	19928
 470.8	19960
 471.3	19921
 471.9	19867
 472.4	19915
 473.0	19948
 473.5	19954
 474.0	19938
 474.6	19926
 475.1	19910
 475.6	19980
 476.2	19974
 476.7	19947
 477.3	19999
 477.8	19927
 478.3	19846
 478.9	20053
 479.4	19921
 479.9	19921
 480.5	19897
 481.0	19917
 481.6	19929
 482.1	19983
 482.6	19950
 483.2	19949
 483.7	20059
 484.2	19979
 484.8	19796
 485.3	19891
 485.9	19960
 486.4	19912
 486.9	19917
 487.5	19871
 488.0	19868
 488.6	19921
 489.1	19920
 489.6	19969
 490.2	19962
 490.7	19906
 491.2	19873
 491.8	19923
 492.3	19871
 492.9	19918
 493.4	19927
 493.9	19943
 494.5	19943
 495.0	20017
 495.6	19924
 496.1	19942
 496.6	20005
 497.2	19914
 497.7	19876
 498.2	19977
 498.8	19999
 499.3	19910
 499.9	19962
 500.4	19959
 500.9	19934
 501.5	19917
 502.0	19977
 502.6	19949
 503.1	20029
 503.6	19982
 504.2	19920
 504.7	19907
 505.2	19965
 505.8	19940
 506.3	20003
 506.9	19995
 507.4	19935
 507.9	19896
 508.5	19906
 509.0	19932
 509.6	19985
 510.1	19929
 510.6	19953
 511.2	19957
 511.7	19925
 512.2	19983
 512.8	19990
 513.3	19938
 513.9	19914
 514.4	19972
 514.9	20038
 515.5	19930
 516.0	20005
 516.6	19978
 517.1	20028
 517.6	20005
 518.2	19995
 518.7	19923
 519.3	19988
 519.8	20043
 520.3	20044
 520.9	20003
 521.4	20015
 521.9	20080
 522.5	20005
 523.0	20039
 523.6	20081
 524.1	19919
 524.6	19988
 525.2	20011
 525.7	20043
 526.3	19958
 526.8	20050
 527.3	19986
 527.9	20001
 528.4	19976
 528.9	20024
 529.5	20042
 530.0	20009
 530.6	20049
 531.1	20039
 531.6	19926
 532.2	20045
 532.7	19986
 533.3	19999
 533.8	20121
 534.3	20130
 534.9	20113
 535.4	20033
 536.0	20094
 536.5	20122
 537.0	20063
 537.6	20075
 538.1	20114
 538.6	20119
 539.2	20037
 539.7	20044
 540.3	20145
 540.8	20093
 541.3	20037
 541.9	20063
 542.4	20063
 543.0	20128
 543.5	20084
 544.0	20059
 544.6	20113
 545.1	20117
 545.6	20162
 546.2	20144
 546.7	20045
 547.3	20105
 547.8	20086
 548.3	20139
 548.9	20053
 549.4	20059
 550.0	20026
 550.5	20097
 551.0	20144
 551.6	20090
 552.1	20113
 552.6	20111
 553.2	20088
 553.7	20063
 554.3	20107
 554.8	20175
 555.3	20019
 555.9	20096
 556.4	20044
 556.9	20135
 557.5	20159
 558.0	20104
 558.6	20073
 559.1	20148
 559.6	20121
 560.2	20110
 560.7	20106
 561.3	20069
 561.8	20036
 562.3	20154
 562.9	20129
 563.4	20153
 563.9	20130
 564.5	20135
 565.0	20113
 565.6	20135
 566.1	20127
 566.6	20135
 567.2	20111
 567.7	20223
 568.2	20115
 568.8	20133
 569.3	20095
 569.9	20172
 570.4	20160
 570.9	20118
 571.5	20113
 572.0	20099
 572.5	20155
 573.1	20097
 573.6	20146
 574.1	20129
 574.7	20118
 575.2	20085
 575.8	20121
 576.3	20186
 576.8	20141
 577.4	20147
 577.9	20157
 578.4	20099
 579.0	20097
 579.5	20194
 580.1	20111
 580.6	20099
 581.1	20174
 581.7	20181
 582.2	20109
 582.7	20143
 583.3	20183
 583.8	20141
 584.3	20083
 584.9	20135
 585.4	20129
 586.0	20096
 586.5	20130
 587.0	20070
 587.6	20158
 588.1	20097
 588.6	20168
 589.2	20105
 589.7	20118
 590.2	20103
 590.8	20108
 591.3	20131
 591.9	20071
 592.4	20135
 592.9	20074
 593.5	20074
 594.0	20069
 594.5	20094
 595.1	20085
 595.6	20067
 596.1	20134
 596.7	20107
 597.2	20153
 597.7	20094
 598.3	20107
 598.8	20082
 599.3	20107
 599.9	20084
 600.4	20084
 601.0	20101
 601.5	20093
 602.0	20089
 602.6	20029
 603.1	20051
 603.6	20046
 604.2	20157
 604.7	20054
 605.2	20122
 605.8	20030
 606.3	20049
 606.8	20122
 607.4	20083
 607.9	20117
 608.4	20050
 609.0	20079
 609.5	20123
 610.0	20085
 610.6	20179
 611.1	20077
 611.6	20090
 612.2	20079
 612.7	20133
 613.2	20114
 613.8	20027
 614.3	20046
 614.8	20092
 615.4	20000
 615.9	20074
 616.4	20116
 617.0	20046
 617.5	20135
 618.0	20131
 618.6	20030
 619.1	20045
 619.6	20115
 620.2	20083
 620.7	20124
 621.2	20068
 621.8	20091
 622.3	20100
 622.8	20039
 623.4	20064
 623.9	20115
 624.4	20075
 625.0	20072
 625.5	20069
 626.0	20078
 626.6	20122
 627.1	20117
 627.6	20063
 628.2	20027
 628.7	20063
 629.2	20045
 629.8	20083
 630.3	20105
 630.8	20093
 631.4	20086
 631.9	20119
 632.4	20019
 632.9	20059
 633.5	20066
 634.0	20036
 634.5	20141
 635.1	20077
 635.6	20054
 636.1	20050
 636.7	20122
 637.2	20125
 637.7	20039
 638.3	20150
 638.8	20154
 639.3	20173
 639.8	20133
 640.4	20158
 640.9	20189
 641.4	20092
 642.0	20094
 642.5	20118
 643.0	20093
 643.6	20189
 644.1	20145
 644.6	20158
 645.1	20195
 645.7	20171
 646.2	20138
 646.7	20146
 647.3	20176
 647.8	20175
 648.3	20150
 648.9	20177
 649.4	20081
 649.9	20149
 650.4	20155
 651.0	20192
 651.5	20195
 652.0	20246
 652.6	20179
 653.1	20245
 653.6	20143
 654.1	20224
 654.7	20155
 655.2	20231
 655.7	20263
 656.3	20267
 656.8	20199
 657.3	20243
 657.8	20186
 658.4	20167
 658.9	20163
 659.4	20254
 659.9	20228
 660.5	20194
 661.0	20245
 661.5	20285
 662.1	20239
 662.6	20245
 663.1	20199
 663.6	20281
 664.2	20237
 664.7	20204
 665.2	20126
 665.7	20253
 666.3	20219
 666.8	20229
 667.3	20240
 667.8	20191
 668.4	20229
 668.9	20237
 669.4	20227
 669.9	20267
 670.5	20199
 671.0	20225
 671.5	20179
 672.0	20255
 672.6	20259
 673.1	20289
 673.6	20197
 674.1	20244
 674.7	20238
 675.2	20299
 675.7	20152
 676.2	20173
 676.8	20226
 677.3	20260
 677.8	20180
 678.3	20305
 678.9	20240
 679.4	20189
 679.9	20265
 680.4	20275
 681.0	20237
 681.5	20284
 682.0	20258
 682.5	20286
 683.1	20196
 683.6	20260
 684.1	20203
 684.6	20316
 685.1	20251
 685.7	20278
 686.2	20248
 686.7	20210
 687.2	20205
 687.8	20281
 688.3	20217
 688.8	20253
 689.3	20185
 689.8	20227
 690.4	20227
 690.9	20229
 691.4	20226
 691.9	20258
 692.4	20208
 693.0	20283
 693.5	20250
 694.0	20236
 694.5	20229
 695.1	20205
 695.6	20165
 696.1	20242
 696.6	20222
 697.1	20246
 697.7	20277
 698.2	20203
 698.7	20231
 699.2	20190
 699.7	20194
 700.3	20183
 700.8	20159
 701.3	20285
 701.8	20241
 702.3	20187
 702.8	20199
 703.4	20169
 703.9	20190
 704.4	20194
 704.9	20158
 705.4	20171
 706.0	20286
 706.5	20272
 707.0	20192
 707.5	20184
 708.0	20226
 708.5	20181
 709.1	20260
 709.6	20224
 710.1	20198
 710.6	20179
 711.1	20195
 711.7	20230
 712.2	20241
 712.7	20244
 713.2	20231
 713.7	20239
 714.2	20200
 714.8	20296
 715.3	20243
 715.8	20246
 716.3	20261
 716.8	20163
 717.3	20156
 717.8	20274
 718.4	20281
 718.9	20218
 719.4	20302
 719.9	20208
 720.4	20258
 720.9	20263
 721.4	20259
 722.0	20275
 722.5	20255
 723.0	20241
 723.5	20257
 724.0	20209
 724.5	20201
 725.0	20218
 725.6	20146
 726.1	20195
 726.6	20319
 727.1	20259
 727.6	20295
 728.1	20311
 728.6	20259
 729.1	20248
 729.7	20239
 730.2	20265
 730.7	20301
 731.2	20323
 731.7	20313
 732.2	20320
 732.7	20303
 733.2	20347
 733.8	20319
 734.3	20335
 734.8	20293
 735.3	20319
 735.8	20294
 736.3	20262
 736.8	20295
 737.3	20325
 737.8	20273
 738.4	20268
 738.9	20213
 739.4	20301
 739.9	20286
 740.4	20284
 740.9	20281
 741.4	20272
 741.9	20267
 742.4	20286
 742.9	20273
 743.4	20370
 744.0	20284
 744.5	20287
 745.0	20307
 745.5	20390
 746.0	20367
 746.5	20379
 747.0	20321
 747.5	20313
 748.0	20287
 748.5	20308
 749.0	20329
 749.5	20430
 750.0	20267
 750.5	20338
 751.1	20353
 751.6	20355
 752.1	20358
 752.6	20326
 753.1	20367
 753.6	20306
 754.1	20277
 754.6	20339
 755.1	20295
 755.6	20323
 756.1	20245
 756.6	20367
 757.1	20327
 757.6	20324
 758.1	20302
 758.6	20332
 759.1	20265
 759.6	20315
 760.1	20272
 760.7	20246
 761.2	20338
 761.7	20279
 762.2	20274
 762.7	20342
 763.2	20197
 763.7	20305
 764.2	20247
 764.7	20259
 765.2	20309
 765.7	20288
 766.2	20255
 766.7	20317
 767.2	20277
 767.7	20297
 768.2	20291
 768.7	20263
 769.2	20273
 769.7	20329
 770.2	20302
 770.7	20310
 771.2	20301
 771.7	20274
 772.2	20299
 772.7	20355
 773.2	20343
 773.7	20301
 774.2	20251
 774.7	20313
 775.2	20306
 775.7	20293
 776.2	20288
 776.7	20322
 777.2	20243
 777.7	20335
 778.2	20319
 778.7	20364
 779.2	20386
 779.7	20420
 780.2	20250
 780.7	20331
 781.2	20339
 781.7	20415
 782.2	20340
 782.6	20423
 783.1	20437
 783.6	20397
 784.1	20371
 784.6	20359
 785.1	20369
 785.6	20359
 786.1	20404
 786.6	20422
 787.1	20368
 787.6	20377
 788.1	20375
 788.6	20363
 789.1	20360
 789.6	20411
 790.1	20431
 790.6	20434
 791.1	20343
 791.6	20351
 792.0	20386
 792.5	20424
 793.0	20419
 793.5	20423
 794.0	20364
 794.5	20462
 795.0	20456
 795.5	20428
 796.0	20456
 796.5	20409
 797.0	20443
 797.5	20495
 798.0	20354
 798.4	20411
 798.9	20406
 799.4	20439
 799.9	20459
 800.4	20323
 800.9	20435
 801.4	20520
 801.9	20503
 802.4	20430
 802.9	20517
 803.3	20518
 803.8	20496
 804.3	20451
 804.8	20532
 805.3	20490
 805.8	20496
 806.3	20506
 806.8	20497
 807.2	20510
 807.7	20489
 808.2	20529
 808.7	20452
 809.2	20473
 809.7	20421
 810.2	20501
 810.7	20448
 811.1	20476
 811.6	20492
 812.1	20456
 812.6	20421
 813.1	20486
 813.6	20508
 814.1	20495
 814.5	20464
 815.0	20495
 815.5	20470
 816.0	20429
 816.5	20504
 817.0	20465
 817.4	20458
 817.9	20501
 818.4	20439
 818.9	20534
 819.4	20493
 819.9	20476
 820.3	20449
 820.8	20464
 821.3	20474
 821.8	20502
 822.3	20442
 822.7	20431
 823.2	20501
 823.7	20455
 824.2	20463
 824.7	20447
 825.2	20472
 825.6	20451
 826.1	20453
 826.6	20516
 827.1	20503
 827.6	20499
 828.0	20438
 828.5	20415
 829.0	20463
 829.5	20411
 829.9	20421
 830.4	20486
 830.9	20473
 831.4	20505
 831.9	20463
 832.3	20553
 832.8	20493
 833.3	20492
 833.8	20581
 834.2	20579
 834.7	20413
 835.2	20522
 835.7	20522
 836.1	20516
 836.6	20511
 837.1	20515
 837.6	20527
 838.0	20571
 838.5	20602
 839.0	20602
 839.5	20591
 839.9	20511
 840.4	20521
 840.9	20492
 841.4	20534
 841.8	20569
 842.3	20581
 842.8	20607
 843.3	20611
 843.7	20507
 844.2	20492
 844.7	20594
 845.1	20565
 845.6	20483
 846.1	20513
 846.6	20548
 847.0	20447
 847.5	20505
 848.0	20494
 848.4	20537
 848.9	20504
 849.4	20495
 849.8	20519
 850.3	20525
 850.8	20577
 851.3	20542
 851.7	20537
 852.2	20547
 852.7	20541
 853.1	20524
 853.6	20477
 854.1	20529
 854.5	20494
 855.0	20483
 855.5	20487
 855.9	20556
 856.4	20547
 856.9	20459
 857.3	20531
 857.8	20511
 858.3	20559
 858.7	20517
 859.2	20535
 859.7	20524
 860.1	20584
 860.6	20568
 861.1	20510
 861.5	20560
 862.0	20581
 862.4	20557
 862.9	20521
 863.4	20562
 863.8	20567
 864.3	20582
 864.8	20497
 865.2	20551
 865.7	20578
 866.1	20595
 866.6	20514
 867.1	20597
 867.5	20588
 868.0	20562
 868.5	20523
 868.9	20527
 869.4	20639
 869.8	20595
 870.3	20550
 870.8	20621
 871.2	20573
 871.7	20564
 872.1	20517
 872.6	20576
 873.0	20555
 873.5	20646
 874.0	20650
 874.4	20551
 874.9	20612
 875.3	20593
 875.8	20521
 876.2	20335
 876.7	20195
 877.2	19864
 877.6	19440
 878.1	19037
