#xlabel Wavelength (nm)
#ylabel Spectrometer Array Counts
#title Exposure time is 11000 ms
## lambda	counts
 349.8	18870
 350.3	19185
 350.8	19445
 351.3	19621
 351.9	19693
 352.4	19764
 352.9	19806
 353.4	19747
 354.0	19732
 354.5	19763
 355.0	19765
 355.5	19784
 356.0	19741
 356.6	19706
 357.1	19760
 357.6	19737
 358.1	19767
 358.7	19702
 359.2	19711
 359.7	19733
 360.2	19770
 360.8	19734
 361.3	19831
 361.8	19769
 362.3	19796
 362.9	19746
 363.4	19825
 363.9	19819
 364.4	19852
 364.9	19749
 365.5	19822
 366.0	19802
 366.5	19754
 367.0	19797
 367.6	19821
 368.1	19819
 368.6	19744
 369.1	19810
 369.7	19854
 370.2	19770
 370.7	19770
 371.2	19806
 371.8	19858
 372.3	19771
 372.8	19855
 373.3	19862
 373.9	19793
 374.4	19803
 374.9	19861
 375.5	19730
 376.0	19868
 376.5	19819
 377.0	19843
 377.6	19784
 378.1	19854
 378.6	19776
 379.1	19777
 379.7	19750
 380.2	19817
 380.7	19813
 381.2	19767
 381.8	19754
 382.3	19791
 382.8	19765
 383.4	19813
 383.9	19754
 384.4	19914
 384.9	19816
 385.5	19825
 386.0	19821
 386.5	19894
 387.1	19815
 387.6	19834
 388.1	19829
 388.6	19842
 389.2	19823
 389.7	19839
 390.2	19810
 390.8	19897
 391.3	19855
 391.8	19841
 392.3	19818
 392.9	19802
 393.4	19788
 393.9	19851
 394.5	19841
 395.0	19778
 395.5	19795
 396.0	19787
 396.6	19746
 397.1	19841
 397.6	19833
 398.2	19829
 398.7	19823
 399.2	19914
 399.8	19774
 400.3	19848
 400.8	19886
 401.3	19851
 401.9	19868
 402.4	19876
 402.9	19859
 403.5	19883
 404.0	19861
 404.5	19799
 405.1	19794
 405.6	19891
 406.1	19847
 406.7	19848
 407.2	19847
 407.7	19921
 408.2	19903
 408.8	19885
 409.3	19908
 409.8	19953
 410.4	19895
 410.9	19895
 411.4	19830
 412.0	19892
 412.5	19935
 413.0	19869
 413.6	19909
 414.1	19861
 414.6	19887
 415.2	19921
 415.7	19849
 416.2	19890
 416.8	19866
 417.3	19843
 417.8	19861
 418.4	19943
 418.9	19864
 419.4	19997
 420.0	19873
 420.5	19930
 421.0	19861
 421.5	19944
 422.1	19913
 422.6	19958
 423.1	19985
 423.7	19942
 424.2	19912
 424.7	19942
 425.3	19915
 425.8	19933
 426.3	19910
 426.9	19963
 427.4	19897
 427.9	20010
 428.5	19937
 429.0	19967
 429.6	19909
 430.1	19986
 430.6	19965
 431.2	19883
 431.7	19978
 432.2	19929
 432.8	19891
 433.3	19985
 433.8	19978
 434.4	19927
 434.9	19930
 435.4	19966
 436.0	19929
 436.5	19911
 437.0	19987
 437.6	19945
 438.1	19996
 438.6	19993
 439.2	20015
 439.7	19998
 440.2	19934
 440.8	19964
 441.3	19966
 441.8	19971
 442.4	19935
 442.9	19959
 443.5	19993
 444.0	19989
 444.5	20010
 445.1	19912
 445.6	19942
 446.1	19967
 446.7	19972
 447.2	19983
 447.7	19955
 448.3	20017
 448.8	19965
 449.3	19989
 449.9	19919
 450.4	20001
 450.9	20027
 451.5	20006
 452.0	19957
 452.6	19961
 453.1	19994
 453.6	19993
 454.2	19858
 454.7	19922
 455.2	19935
 455.8	19971
 456.3	19893
 456.8	20021
 457.4	19933
 457.9	19936
 458.5	19981
 459.0	19935
 459.5	19968
 460.1	19916
 460.6	19961
 461.1	19947
 461.7	19996
 462.2	19941
 462.7	19982
 463.3	19905
 463.8	19973
 464.4	20045
 464.9	19981
 465.4	20043
 466.0	19929
 466.5	20001
 467.0	19917
 467.6	19987
 468.1	20067
 468.7	19982
 469.2	19901
 469.7	19983
 470.3	19946
 470.8	19980
 471.3	19942
 471.9	19886
 472.4	19929
 473.0	19967
 473.5	19973
 474.0	19957
 474.6	19951
 475.1	19933
 475.6	20001
 476.2	19997
 476.7	19968
 477.3	20017
 477.8	19947
 478.3	19863
 478.9	20072
 479.4	19943
 479.9	19946
 480.5	19917
 481.0	19931
 481.6	19947
 482.1	20003
 482.6	19972
 483.2	19966
 483.7	20077
 484.2	19999
 484.8	19809
 485.3	19911
 485.9	19980
 486.4	19933
 486.9	19935
 487.5	19894
 488.0	19888
 488.6	19946
 489.1	19939
 489.6	19991
 490.2	19985
 490.7	19925
 491.2	19890
 491.8	19941
 492.3	19890
 492.9	19934
 493.4	19948
 493.9	19966
 494.5	19965
 495.0	20037
 495.6	19943
 496.1	19963
 496.6	20027
 497.2	19935
 497.7	19900
 498.2	19994
 498.8	20022
 499.3	19929
 499.9	19989
 500.4	19981
 500.9	19955
 501.5	19939
 502.0	20001
 502.6	19970
 503.1	20048
 503.6	20002
 504.2	19935
 504.7	19931
 505.2	19983
 505.8	19959
 506.3	20018
 506.9	20011
 507.4	19957
 507.9	19913
 508.5	19927
 509.0	19955
 509.6	20003
 510.1	19947
 510.6	19976
 511.2	19976
 511.7	19944
 512.2	20002
 512.8	20011
 513.3	19957
 513.9	19931
 514.4	19988
 514.9	20056
 515.5	19946
 516.0	20025
 516.6	19991
 517.1	20048
 517.6	20029
 518.2	20005
 518.7	19941
 519.3	20007
 519.8	20058
 520.3	20066
 520.9	20022
 521.4	20040
 521.9	20101
 522.5	20026
 523.0	20058
 523.6	20099
 524.1	19943
 524.6	20008
 525.2	20029
 525.7	20063
 526.3	19971
 526.8	20067
 527.3	20004
 527.9	20022
 528.4	19996
 528.9	20051
 529.5	20060
 530.0	20027
 530.6	20069
 531.1	20063
 531.6	19953
 532.2	20063
 532.7	19999
 533.3	20019
 533.8	20137
 534.3	20148
 534.9	20132
 535.4	20053
 536.0	20112
 536.5	20143
 537.0	20083
 537.6	20091
 538.1	20131
 538.6	20139
 539.2	20060
 539.7	20066
 540.3	20161
 540.8	20111
 541.3	20059
 541.9	20089
 542.4	20079
 543.0	20145
 543.5	20103
 544.0	20081
 544.6	20137
 545.1	20132
 545.6	20177
 546.2	20161
 546.7	20061
 547.3	20127
 547.8	20108
 548.3	20163
 548.9	20074
 549.4	20080
 550.0	20048
 550.5	20115
 551.0	20170
 551.6	20111
 552.1	20135
 552.6	20131
 553.2	20108
 553.7	20079
 554.3	20124
 554.8	20193
 555.3	20039
 555.9	20111
 556.4	20065
 556.9	20156
 557.5	20179
 558.0	20123
 558.6	20094
 559.1	20167
 559.6	20138
 560.2	20127
 560.7	20119
 561.3	20085
 561.8	20056
 562.3	20169
 562.9	20144
 563.4	20173
 563.9	20157
 564.5	20156
 565.0	20127
 565.6	20154
 566.1	20150
 566.6	20152
 567.2	20133
 567.7	20242
 568.2	20134
 568.8	20151
 569.3	20113
 569.9	20191
 570.4	20178
 570.9	20144
 571.5	20133
 572.0	20123
 572.5	20172
 573.1	20114
 573.6	20159
 574.1	20152
 574.7	20138
 575.2	20106
 575.8	20139
 576.3	20210
 576.8	20161
 577.4	20164
 577.9	20172
 578.4	20121
 579.0	20114
 579.5	20217
 580.1	20131
 580.6	20122
 581.1	20191
 581.7	20204
 582.2	20130
 582.7	20167
 583.3	20201
 583.8	20167
 584.3	20099
 584.9	20159
 585.4	20151
 586.0	20109
 586.5	20147
 587.0	20091
 587.6	20173
 588.1	20115
 588.6	20186
 589.2	20123
 589.7	20135
 590.2	20125
 590.8	20127
 591.3	20152
 591.9	20093
 592.4	20157
 592.9	20093
 593.5	20088
 594.0	20088
 594.5	20113
 595.1	20105
 595.6	20091
 596.1	20157
 596.7	20123
 597.2	20174
 597.7	20114
 598.3	20131
 598.8	20103
 599.3	20132
 599.9	20107
 600.4	20107
 601.0	20119
 601.5	20111
 602.0	20105
 602.6	20049
 603.1	20069
 603.6	20065
 604.2	20173
 604.7	20070
 605.2	20139
 605.8	20046
 606.3	20069
 606.8	20141
 607.4	20101
 607.9	20136
 608.4	20070
 609.0	20101
 609.5	20143
 610.0	20104
 610.6	20198
 611.1	20093
 611.6	20108
 612.2	20096
 612.7	20158
 613.2	20137
 613.8	20045
 614.3	20065
 614.8	20114
 615.4	20019
 615.9	20092
 616.4	20138
 617.0	20073
 617.5	20153
 618.0	20152
 618.6	20050
 619.1	20070
 619.6	20135
 620.2	20105
 620.7	20141
 621.2	20087
 621.8	20111
 622.3	20119
 622.8	20063
 623.4	20079
 623.9	20129
 624.4	20091
 625.0	20089
 625.5	20091
 626.0	20095
 626.6	20139
 627.1	20135
 627.6	20083
 628.2	20045
 628.7	20081
 629.2	20064
 629.8	20102
 630.3	20125
 630.8	20113
 631.4	20103
 631.9	20139
 632.4	20037
 632.9	20073
 633.5	20079
 634.0	20044
 634.5	20158
 635.1	20094
 635.6	20071
 636.1	20071
 636.7	20143
 637.2	20146
 637.7	20059
 638.3	20173
 638.8	20172
 639.3	20197
 639.8	20148
 640.4	20178
 640.9	20209
 641.4	20114
 642.0	20115
 642.5	20142
 643.0	20111
 643.6	20206
 644.1	20159
 644.6	20174
 645.1	20216
 645.7	20190
 646.2	20150
 646.7	20167
 647.3	20193
 647.8	20194
 648.3	20169
 648.9	20195
 649.4	20100
 649.9	20170
 650.4	20175
 651.0	20205
 651.5	20216
 652.0	20261
 652.6	20193
 653.1	20265
 653.6	20163
 654.1	20246
 654.7	20176
 655.2	20251
 655.7	20282
 656.3	20289
 656.8	20219
 657.3	20263
 657.8	20205
 658.4	20181
 658.9	20184
 659.4	20269
 659.9	20251
 660.5	20219
 661.0	20267
 661.5	20303
 662.1	20253
 662.6	20261
 663.1	20215
 663.6	20305
 664.2	20257
 664.7	20221
 665.2	20139
 665.7	20271
 666.3	20237
 666.8	20251
 667.3	20255
 667.8	20213
 668.4	20249
 668.9	20256
 669.4	20246
 669.9	20290
 670.5	20225
 671.0	20245
 671.5	20195
 672.0	20273
 672.6	20275
 673.1	20309
 673.6	20219
 674.1	20264
 674.7	20258
 675.2	20313
 675.7	20171
 676.2	20191
 676.8	20245
 677.3	20275
 677.8	20200
 678.3	20321
 678.9	20265
 679.4	20207
 679.9	20280
 680.4	20291
 681.0	20256
 681.5	20307
 682.0	20279
 682.5	20309
 683.1	20219
 683.6	20284
 684.1	20227
 684.6	20336
 685.1	20268
 685.7	20297
 686.2	20267
 686.7	20233
 687.2	20222
 687.8	20300
 688.3	20235
 688.8	20269
 689.3	20210
 689.8	20240
 690.4	20241
 690.9	20248
 691.4	20244
 691.9	20282
 692.4	20229
 693.0	20302
 693.5	20269
 694.0	20253
 694.5	20244
 695.1	20222
 695.6	20185
 696.1	20262
 696.6	20244
 697.1	20265
 697.7	20293
 698.2	20222
 698.7	20249
 699.2	20207
 699.7	20214
 700.3	20195
 700.8	20176
 701.3	20301
 701.8	20259
 702.3	20206
 702.8	20216
 703.4	20187
 703.9	20207
 704.4	20212
 704.9	20173
 705.4	20191
 706.0	20303
 706.5	20293
 707.0	20207
 707.5	20202
 708.0	20247
 708.5	20195
 709.1	20276
 709.6	20246
 710.1	20218
 710.6	20200
 711.1	20213
 711.7	20247
 712.2	20254
 712.7	20267
 713.2	20251
 713.7	20254
 714.2	20217
 714.8	20311
 715.3	20261
 715.8	20263
 716.3	20281
 716.8	20186
 717.3	20173
 717.8	20291
 718.4	20305
 718.9	20235
 719.4	20327
 719.9	20229
 720.4	20275
 720.9	20283
 721.4	20278
 722.0	20296
 722.5	20279
 723.0	20269
 723.5	20275
 724.0	20228
 724.5	20223
 725.0	20239
 725.6	20164
 726.1	20211
 726.6	20336
 727.1	20271
 727.6	20311
 728.1	20330
 728.6	20275
 729.1	20267
 729.7	20257
 730.2	20278
 730.7	20317
 731.2	20341
 731.7	20332
 732.2	20338
 732.7	20320
 733.2	20369
 733.8	20345
 734.3	20351
 734.8	20315
 735.3	20335
 735.8	20316
 736.3	20281
 736.8	20309
 737.3	20348
 737.8	20293
 738.4	20287
 738.9	20227
 739.4	20323
 739.9	20304
 740.4	20308
 740.9	20295
 741.4	20293
 741.9	20288
 742.4	20308
 742.9	20294
 743.4	20390
 744.0	20309
 744.5	20308
 745.0	20323
 745.5	20411
 746.0	20389
 746.5	20397
 747.0	20343
 747.5	20333
 748.0	20305
 748.5	20327
 749.0	20345
 749.5	20447
 750.0	20280
 750.5	20357
 751.1	20375
 751.6	20378
 752.1	20375
 752.6	20347
 753.1	20382
 753.6	20325
 754.1	20300
 754.6	20357
 755.1	20318
 755.6	20337
 756.1	20260
 756.6	20384
 757.1	20347
 757.6	20344
 758.1	20323
 758.6	20351
 759.1	20282
 759.6	20334
 760.1	20291
 760.7	20262
 761.2	20353
 761.7	20299
 762.2	20298
 762.7	20362
 763.2	20214
 763.7	20319
 764.2	20265
 764.7	20274
 765.2	20327
 765.7	20310
 766.2	20275
 766.7	20333
 767.2	20292
 767.7	20313
 768.2	20303
 768.7	20279
 769.2	20290
 769.7	20347
 770.2	20323
 770.7	20327
 771.2	20322
 771.7	20295
 772.2	20322
 772.7	20376
 773.2	20362
 773.7	20321
 774.2	20267
 774.7	20333
 775.2	20322
 775.7	20308
 776.2	20308
 776.7	20341
 777.2	20262
 777.7	20352
 778.2	20338
 778.7	20383
 779.2	20402
 779.7	20433
 780.2	20273
 780.7	20348
 781.2	20359
 781.7	20438
 782.2	20362
 782.6	20443
 783.1	20452
 783.6	20415
 784.1	20387
 784.6	20376
 785.1	20388
 785.6	20379
 786.1	20421
 786.6	20443
 787.1	20382
 787.6	20399
 788.1	20397
 788.6	20382
 789.1	20383
 789.6	20430
 790.1	20452
 790.6	20455
 791.1	20362
 791.6	20371
 792.0	20405
 792.5	20446
 793.0	20435
 793.5	20441
 794.0	20383
 794.5	20485
 795.0	20477
 795.5	20452
 796.0	20471
 796.5	20429
 797.0	20459
 797.5	20515
 798.0	20372
 798.4	20435
 798.9	20418
 799.4	20452
 799.9	20478
 800.4	20337
 800.9	20459
 801.4	20539
 801.9	20517
 802.4	20445
 802.9	20534
 803.3	20539
 803.8	20515
 804.3	20471
 804.8	20556
 805.3	20511
 805.8	20513
 806.3	20527
 806.8	20521
 807.2	20528
 807.7	20507
 808.2	20549
 808.7	20471
 809.2	20494
 809.7	20445
 810.2	20519
 810.7	20469
 811.1	20491
 811.6	20509
 812.1	20475
 812.6	20443
 813.1	20503
 813.6	20533
 814.1	20519
 814.5	20481
 815.0	20516
 815.5	20491
 816.0	20442
 816.5	20527
 817.0	20486
 817.4	20478
 817.9	20521
 818.4	20457
 818.9	20552
 819.4	20513
 819.9	20499
 820.3	20471
 820.8	20484
 821.3	20491
 821.8	20521
 822.3	20461
 822.7	20447
 823.2	20520
 823.7	20467
 824.2	20482
 824.7	20462
 825.2	20490
 825.6	20477
 826.1	20471
 826.6	20535
 827.1	20524
 827.6	20518
 828.0	20461
 828.5	20438
 829.0	20486
 829.5	20428
 829.9	20437
 830.4	20508
 830.9	20494
 831.4	20525
 831.9	20479
 832.3	20574
 832.8	20516
 833.3	20513
 833.8	20600
 834.2	20604
 834.7	20435
 835.2	20542
 835.7	20541
 836.1	20534
 836.6	20529
 837.1	20535
 837.6	20548
 838.0	20588
 838.5	20618
 839.0	20625
 839.5	20611
 839.9	20530
 840.4	20541
 840.9	20507
 841.4	20554
 841.8	20585
 842.3	20599
 842.8	20626
 843.3	20629
 843.7	20522
 844.2	20515
 844.7	20611
 845.1	20576
 845.6	20504
 846.1	20531
 846.6	20563
 847.0	20465
 847.5	20525
 848.0	20509
 848.4	20557
 848.9	20527
 849.4	20511
 849.8	20542
 850.3	20543
 850.8	20595
 851.3	20559
 851.7	20557
 852.2	20572
 852.7	20563
 853.1	20539
 853.6	20495
 854.1	20550
 854.5	20509
 855.0	20505
 855.5	20499
 855.9	20571
 856.4	20563
 856.9	20477
 857.3	20550
 857.8	20527
 858.3	20575
 858.7	20535
 859.2	20556
 859.7	20545
 860.1	20604
 860.6	20585
 861.1	20530
 861.5	20578
 862.0	20593
 862.4	20575
 862.9	20535
 863.4	20581
 863.8	20590
 864.3	20596
 864.8	20514
 865.2	20571
 865.7	20598
 866.1	20617
 866.6	20525
 867.1	20617
 867.5	20599
 868.0	20581
 868.5	20541
 868.9	20542
 869.4	20655
 869.8	20610
 870.3	20566
 870.8	20644
 871.2	20585
 871.7	20581
 872.1	20523
 872.6	20587
 873.0	20560
 873.5	20647
 874.0	20655
 874.4	20567
 874.9	20633
 875.3	20636
 875.8	20610
 876.2	20474
 876.7	20393
 877.2	20080
 877.6	19635
 878.1	19147
