#xlabel Wavelength (nm)
#ylabel Spectrometer Array Counts
#title Exposure time is 11000 ms
## lambda	counts
 349.8	18675
 350.3	18929
 350.8	19181
 351.3	19385
 351.9	19505
 352.4	19638
 352.9	19719
 353.4	19690
 354.0	19700
 354.5	19746
 355.0	19753
 355.5	19767
 356.0	19729
 356.6	19685
 357.1	19736
 357.6	19709
 358.1	19735
 358.7	19668
 359.2	19680
 359.7	19702
 360.2	19737
 360.8	19699
 361.3	19792
 361.8	19732
 362.3	19760
 362.9	19713
 363.4	19792
 363.9	19783
 364.4	19817
 364.9	19715
 365.5	19793
 366.0	19773
 366.5	19723
 367.0	19763
 367.6	19791
 368.1	19792
 368.6	19719
 369.1	19775
 369.7	19822
 370.2	19738
 370.7	19733
 371.2	19778
 371.8	19825
 372.3	19740
 372.8	19817
 373.3	19827
 373.9	19758
 374.4	19779
 374.9	19825
 375.5	19701
 376.0	19828
 376.5	19783
 377.0	19805
 377.6	19745
 378.1	19819
 378.6	19746
 379.1	19747
 379.7	19716
 380.2	19792
 380.7	19785
 381.2	19735
 381.8	19723
 382.3	19759
 382.8	19734
 383.4	19781
 383.9	19721
 384.4	19881
 384.9	19779
 385.5	19794
 386.0	19793
 386.5	19860
 387.1	19784
 387.6	19797
 388.1	19800
 388.6	19807
 389.2	19789
 389.7	19807
 390.2	19779
 390.8	19863
 391.3	19824
 391.8	19812
 392.3	19785
 392.9	19772
 393.4	19754
 393.9	19812
 394.5	19809
 395.0	19748
 395.5	19764
 396.0	19757
 396.6	19714
 397.1	19810
 397.6	19797
 398.2	19792
 398.7	19791
 399.2	19883
 399.8	19744
 400.3	19813
 400.8	19859
 401.3	19813
 401.9	19829
 402.4	19842
 402.9	19829
 403.5	19848
 404.0	19830
 404.5	19768
 405.1	19765
 405.6	19859
 406.1	19820
 406.7	19813
 407.2	19815
 407.7	19887
 408.2	19871
 408.8	19857
 409.3	19879
 409.8	19917
 410.4	19867
 410.9	19862
 411.4	19795
 412.0	19854
 412.5	19900
 413.0	19837
 413.6	19875
 414.1	19826
 414.6	19854
 415.2	19896
 415.7	19816
 416.2	19859
 416.8	19836
 417.3	19817
 417.8	19829
 418.4	19907
 418.9	19835
 419.4	19967
 420.0	19839
 420.5	19901
 421.0	19830
 421.5	19909
 422.1	19875
 422.6	19929
 423.1	19947
 423.7	19903
 424.2	19885
 424.7	19914
 425.3	19885
 425.8	19897
 426.3	19878
 426.9	19934
 427.4	19867
 427.9	19977
 428.5	19903
 429.0	19931
 429.6	19879
 430.1	19953
 430.6	19933
 431.2	19853
 431.7	19946
 432.2	19896
 432.8	19855
 433.3	19952
 433.8	19945
 434.4	19897
 434.9	19896
 435.4	19935
 436.0	19899
 436.5	19885
 437.0	19951
 437.6	19911
 438.1	19961
 438.6	19964
 439.2	19989
 439.7	19963
 440.2	19901
 440.8	19937
 441.3	19937
 441.8	19934
 442.4	19901
 442.9	19924
 443.5	19963
 444.0	19951
 444.5	19979
 445.1	19883
 445.6	19913
 446.1	19925
 446.7	19938
 447.2	19945
 447.7	19920
 448.3	19982
 448.8	19926
 449.3	19959
 449.9	19880
 450.4	19964
 450.9	19990
 451.5	19967
 452.0	19922
 452.6	19922
 453.1	19966
 453.6	19957
 454.2	19828
 454.7	19888
 455.2	19901
 455.8	19938
 456.3	19863
 456.8	19989
 457.4	19903
 457.9	19900
 458.5	19945
 459.0	19895
 459.5	19940
 460.1	19878
 460.6	19937
 461.1	19919
 461.7	19961
 462.2	19909
 462.7	19954
 463.3	19870
 463.8	19945
 464.4	20012
 464.9	19943
 465.4	20007
 466.0	19897
 466.5	19969
 467.0	19887
 467.6	19950
 468.1	20031
 468.7	19945
 469.2	19869
 469.7	19947
 470.3	19916
 470.8	19949
 471.3	19911
 471.9	19853
 472.4	19901
 473.0	19931
 473.5	19943
 474.0	19918
 474.6	19919
 475.1	19903
 475.6	19967
 476.2	19969
 476.7	19934
 477.3	19991
 477.8	19919
 478.3	19831
 478.9	20038
 479.4	19907
 479.9	19911
 480.5	19886
 481.0	19901
 481.6	19917
 482.1	19969
 482.6	19939
 483.2	19935
 483.7	20049
 484.2	19969
 484.8	19785
 485.3	19883
 485.9	19951
 486.4	19903
 486.9	19910
 487.5	19858
 488.0	19859
 488.6	19913
 489.1	19913
 489.6	19959
 490.2	19950
 490.7	19895
 491.2	19863
 491.8	19913
 492.3	19860
 492.9	19910
 493.4	19917
 493.9	19931
 494.5	19932
 495.0	20005
 495.6	19913
 496.1	19930
 496.6	19999
 497.2	19905
 497.7	19864
 498.2	19964
 498.8	19989
 499.3	19896
 499.9	19953
 500.4	19946
 500.9	19927
 501.5	19907
 502.0	19969
 502.6	19938
 503.1	20019
 503.6	19973
 504.2	19907
 504.7	19897
 505.2	19953
 505.8	19929
 506.3	19987
 506.9	19977
 507.4	19921
 507.9	19883
 508.5	19898
 509.0	19919
 509.6	19971
 510.1	19920
 510.6	19942
 511.2	19946
 511.7	19918
 512.2	19973
 512.8	19982
 513.3	19929
 513.9	19904
 514.4	19961
 514.9	20030
 515.5	19919
 516.0	19997
 516.6	19962
 517.1	20015
 517.6	20001
 518.2	19980
 518.7	19908
 519.3	19978
 519.8	20033
 520.3	20033
 520.9	19991
 521.4	20003
 521.9	20066
 522.5	19990
 523.0	20028
 523.6	20071
 524.1	19909
 524.6	19978
 525.2	19999
 525.7	20031
 526.3	19941
 526.8	20035
 527.3	19971
 527.9	19992
 528.4	19966
 528.9	20017
 529.5	20029
 530.0	19997
 530.6	20035
 531.1	20025
 531.6	19917
 532.2	20031
 532.7	19971
 533.3	19989
 533.8	20104
 534.3	20114
 534.9	20099
 535.4	20022
 536.0	20081
 536.5	20105
 537.0	20052
 537.6	20061
 538.1	20099
 538.6	20109
 539.2	20029
 539.7	20033
 540.3	20132
 540.8	20084
 541.3	20031
 541.9	20055
 542.4	20053
 543.0	20115
 543.5	20072
 544.0	20055
 544.6	20102
 545.1	20106
 545.6	20147
 546.2	20124
 546.7	20035
 547.3	20098
 547.8	20072
 548.3	20129
 548.9	20043
 549.4	20045
 550.0	20018
 550.5	20085
 551.0	20139
 551.6	20081
 552.1	20101
 552.6	20102
 553.2	20081
 553.7	20050
 554.3	20097
 554.8	20159
 555.3	20008
 555.9	20079
 556.4	20035
 556.9	20126
 557.5	20146
 558.0	20091
 558.6	20058
 559.1	20139
 559.6	20110
 560.2	20097
 560.7	20093
 561.3	20057
 561.8	20025
 562.3	20139
 562.9	20113
 563.4	20144
 563.9	20123
 564.5	20127
 565.0	20102
 565.6	20123
 566.1	20120
 566.6	20121
 567.2	20105
 567.7	20213
 568.2	20102
 568.8	20118
 569.3	20084
 569.9	20162
 570.4	20142
 570.9	20113
 571.5	20101
 572.0	20090
 572.5	20146
 573.1	20087
 573.6	20133
 574.1	20121
 574.7	20105
 575.2	20071
 575.8	20109
 576.3	20177
 576.8	20132
 577.4	20135
 577.9	20147
 578.4	20091
 579.0	20087
 579.5	20186
 580.1	20095
 580.6	20091
 581.1	20162
 581.7	20171
 582.2	20094
 582.7	20134
 583.3	20170
 583.8	20136
 584.3	20072
 584.9	20129
 585.4	20121
 586.0	20083
 586.5	20123
 587.0	20063
 587.6	20142
 588.1	20084
 588.6	20157
 589.2	20088
 589.7	20105
 590.2	20094
 590.8	20093
 591.3	20119
 591.9	20063
 592.4	20132
 592.9	20069
 593.5	20062
 594.0	20063
 594.5	20087
 595.1	20071
 595.6	20061
 596.1	20123
 596.7	20091
 597.2	20147
 597.7	20085
 598.3	20097
 598.8	20071
 599.3	20095
 599.9	20075
 600.4	20078
 601.0	20092
 601.5	20076
 602.0	20071
 602.6	20019
 603.1	20041
 603.6	20033
 604.2	20149
 604.7	20039
 605.2	20115
 605.8	20014
 606.3	20040
 606.8	20111
 607.4	20072
 607.9	20106
 608.4	20037
 609.0	20068
 609.5	20108
 610.0	20076
 610.6	20166
 611.1	20063
 611.6	20078
 612.2	20074
 612.7	20127
 613.2	20101
 613.8	20011
 614.3	20035
 614.8	20083
 615.4	19991
 615.9	20063
 616.4	20110
 617.0	20043
 617.5	20126
 618.0	20121
 618.6	20021
 619.1	20041
 619.6	20106
 620.2	20077
 620.7	20115
 621.2	20057
 621.8	20083
 622.3	20101
 622.8	20031
 623.4	20053
 623.9	20101
 624.4	20068
 625.0	20063
 625.5	20061
 626.0	20067
 626.6	20111
 627.1	20105
 627.6	20055
 628.2	20020
 628.7	20058
 629.2	20035
 629.8	20077
 630.3	20099
 630.8	20084
 631.4	20077
 631.9	20111
 632.4	20009
 632.9	20047
 633.5	20056
 634.0	20023
 634.5	20131
 635.1	20063
 635.6	20049
 636.1	20041
 636.7	20117
 637.2	20115
 637.7	20028
 638.3	20143
 638.8	20147
 639.3	20162
 639.8	20122
 640.4	20148
 640.9	20178
 641.4	20083
 642.0	20086
 642.5	20110
 643.0	20086
 643.6	20177
 644.1	20135
 644.6	20143
 645.1	20178
 645.7	20162
 646.2	20123
 646.7	20140
 647.3	20165
 647.8	20164
 648.3	20141
 648.9	20167
 649.4	20069
 649.9	20139
 650.4	20147
 651.0	20174
 651.5	20185
 652.0	20237
 652.6	20160
 653.1	20239
 653.6	20132
 654.1	20209
 654.7	20147
 655.2	20225
 655.7	20253
 656.3	20261
 656.8	20189
 657.3	20233
 657.8	20183
 658.4	20155
 658.9	20155
 659.4	20236
 659.9	20217
 660.5	20188
 661.0	20234
 661.5	20274
 662.1	20223
 662.6	20233
 663.1	20189
 663.6	20269
 664.2	20228
 664.7	20193
 665.2	20111
 665.7	20249
 666.3	20209
 666.8	20221
 667.3	20229
 667.8	20185
 668.4	20221
 668.9	20230
 669.4	20215
 669.9	20257
 670.5	20192
 671.0	20210
 671.5	20172
 672.0	20244
 672.6	20250
 673.1	20280
 673.6	20189
 674.1	20235
 674.7	20220
 675.2	20284
 675.7	20139
 676.2	20161
 676.8	20215
 677.3	20251
 677.8	20173
 678.3	20295
 678.9	20231
 679.4	20180
 679.9	20255
 680.4	20266
 681.0	20228
 681.5	20274
 682.0	20251
 682.5	20278
 683.1	20185
 683.6	20257
 684.1	20194
 684.6	20308
 685.1	20240
 685.7	20269
 686.2	20237
 686.7	20204
 687.2	20195
 687.8	20273
 688.3	20205
 688.8	20241
 689.3	20181
 689.8	20215
 690.4	20213
 690.9	20218
 691.4	20211
 691.9	20251
 692.4	20200
 693.0	20277
 693.5	20243
 694.0	20229
 694.5	20219
 695.1	20197
 695.6	20156
 696.1	20231
 696.6	20212
 697.1	20235
 697.7	20261
 698.2	20197
 698.7	20222
 699.2	20177
 699.7	20185
 700.3	20173
 700.8	20150
 701.3	20274
 701.8	20234
 702.3	20181
 702.8	20188
 703.4	20161
 703.9	20183
 704.4	20188
 704.9	20151
 705.4	20158
 706.0	20280
 706.5	20264
 707.0	20179
 707.5	20176
 708.0	20217
 708.5	20173
 709.1	20246
 709.6	20216
 710.1	20187
 710.6	20172
 711.1	20182
 711.7	20218
 712.2	20227
 712.7	20229
 713.2	20219
 713.7	20223
 714.2	20188
 714.8	20278
 715.3	20227
 715.8	20238
 716.3	20253
 716.8	20157
 717.3	20143
 717.8	20263
 718.4	20275
 718.9	20209
 719.4	20295
 719.9	20199
 720.4	20249
 720.9	20253
 721.4	20246
 722.0	20264
 722.5	20244
 723.0	20229
 723.5	20244
 724.0	20202
 724.5	20201
 725.0	20211
 725.6	20135
 726.1	20181
 726.6	20308
 727.1	20247
 727.6	20282
 728.1	20299
 728.6	20253
 729.1	20242
 729.7	20230
 730.2	20253
 730.7	20293
 731.2	20314
 731.7	20304
 732.2	20307
 732.7	20291
 733.2	20338
 733.8	20312
 734.3	20326
 734.8	20285
 735.3	20307
 735.8	20290
 736.3	20250
 736.8	20279
 737.3	20319
 737.8	20262
 738.4	20258
 738.9	20200
 739.4	20294
 739.9	20277
 740.4	20277
 740.9	20273
 741.4	20263
 741.9	20261
 742.4	20277
 742.9	20261
 743.4	20359
 744.0	20277
 744.5	20277
 745.0	20294
 745.5	20381
 746.0	20359
 746.5	20371
 747.0	20323
 747.5	20302
 748.0	20281
 748.5	20299
 749.0	20318
 749.5	20423
 750.0	20253
 750.5	20327
 751.1	20343
 751.6	20344
 752.1	20350
 752.6	20322
 753.1	20361
 753.6	20300
 754.1	20271
 754.6	20330
 755.1	20288
 755.6	20313
 756.1	20235
 756.6	20355
 757.1	20323
 757.6	20314
 758.1	20293
 758.6	20322
 759.1	20254
 759.6	20309
 760.1	20261
 760.7	20238
 761.2	20330
 761.7	20273
 762.2	20268
 762.7	20336
 763.2	20183
 763.7	20295
 764.2	20238
 764.7	20251
 765.2	20296
 765.7	20287
 766.2	20243
 766.7	20310
 767.2	20265
 767.7	20290
 768.2	20281
 768.7	20257
 769.2	20263
 769.7	20321
 770.2	20294
 770.7	20303
 771.2	20291
 771.7	20267
 772.2	20291
 772.7	20345
 773.2	20332
 773.7	20290
 774.2	20246
 774.7	20306
 775.2	20295
 775.7	20278
 776.2	20281
 776.7	20313
 777.2	20239
 777.7	20323
 778.2	20313
 778.7	20356
 779.2	20371
 779.7	20407
 780.2	20241
 780.7	20319
 781.2	20334
 781.7	20411
 782.2	20330
 782.6	20413
 783.1	20421
 783.6	20386
 784.1	20359
 784.6	20348
 785.1	20361
 785.6	20353
 786.1	20399
 786.6	20415
 787.1	20359
 787.6	20365
 788.1	20367
 788.6	20345
 789.1	20353
 789.6	20407
 790.1	20423
 790.6	20426
 791.1	20330
 791.6	20342
 792.0	20379
 792.5	20417
 793.0	20410
 793.5	20411
 794.0	20353
 794.5	20460
 795.0	20445
 795.5	20422
 796.0	20443
 796.5	20400
 797.0	20435
 797.5	20483
 798.0	20343
 798.4	20399
 798.9	20389
 799.4	20427
 799.9	20449
 800.4	20309
 800.9	20426
 801.4	20514
 801.9	20482
 802.4	20420
 802.9	20506
 803.3	20509
 803.8	20487
 804.3	20445
 804.8	20519
 805.3	20481
 805.8	20485
 806.3	20494
 806.8	20486
 807.2	20499
 807.7	20473
 808.2	20523
 808.7	20441
 809.2	20468
 809.7	20415
 810.2	20488
 810.7	20437
 811.1	20466
 811.6	20479
 812.1	20443
 812.6	20414
 813.1	20476
 813.6	20500
 814.1	20482
 814.5	20450
 815.0	20489
 815.5	20455
 816.0	20417
 816.5	20497
 817.0	20455
 817.4	20447
 817.9	20488
 818.4	20426
 818.9	20523
 819.4	20479
 819.9	20468
 820.3	20438
 820.8	20454
 821.3	20463
 821.8	20494
 822.3	20430
 822.7	20417
 823.2	20489
 823.7	20441
 824.2	20455
 824.7	20441
 825.2	20461
 825.6	20444
 826.1	20441
 826.6	20507
 827.1	20491
 827.6	20492
 828.0	20425
 828.5	20410
 829.0	20453
 829.5	20399
 829.9	20406
 830.4	20479
 830.9	20462
 831.4	20497
 831.9	20449
 832.3	20541
 832.8	20479
 833.3	20479
 833.8	20567
 834.2	20569
 834.7	20404
 835.2	20510
 835.7	20513
 836.1	20505
 836.6	20497
 837.1	20506
 837.6	20515
 838.0	20563
 838.5	20591
 839.0	20594
 839.5	20581
 839.9	20502
 840.4	20515
 840.9	20478
 841.4	20528
 841.8	20557
 842.3	20569
 842.8	20591
 843.3	20597
 843.7	20490
 844.2	20484
 844.7	20581
 845.1	20554
 845.6	20471
 846.1	20504
 846.6	20539
 847.0	20435
 847.5	20494
 848.0	20484
 848.4	20528
 848.9	20493
 849.4	20485
 849.8	20514
 850.3	20511
 850.8	20564
 851.3	20525
 851.7	20530
 852.2	20538
 852.7	20531
 853.1	20515
 853.6	20474
 854.1	20519
 854.5	20482
 855.0	20481
 855.5	20475
 855.9	20549
 856.4	20536
 856.9	20445
 857.3	20519
 857.8	20496
 858.3	20545
 858.7	20506
 859.2	20523
 859.7	20518
 860.1	20573
 860.6	20559
 861.1	20501
 861.5	20550
 862.0	20568
 862.4	20546
 862.9	20509
 863.4	20549
 863.8	20557
 864.3	20569
 864.8	20486
 865.2	20538
 865.7	20568
 866.1	20588
 866.6	20501
 867.1	20583
 867.5	20571
 868.0	20553
 868.5	20507
 868.9	20517
 869.4	20627
 869.8	20582
 870.3	20542
 870.8	20615
 871.2	20568
 871.7	20561
 872.1	20515
 872.6	20581
 873.0	20560
 873.5	20650
 874.0	20642
 874.4	20527
 874.9	20569
 875.3	20527
 875.8	20429
 876.2	20214
 876.7	20071
 877.2	19747
 877.6	19361
 878.1	19003
