#xlabel Wavelength (nm)
#ylabel Spectrometer Array Counts
#title Exposure time is 10000 ms
## lambda	counts
 349.8	16872
 350.3	17121
 350.8	17357
 351.3	17541
 351.9	17635
 352.4	17755
 352.9	17833
 353.4	17800
 354.0	17809
 354.5	17851
 355.0	17864
 355.5	17876
 356.0	17843
 356.6	17811
 357.1	17863
 357.6	17848
 358.1	17866
 358.7	17813
 359.2	17831
 359.7	17849
 360.2	17891
 360.8	17854
 361.3	17954
 361.8	17904
 362.3	17941
 362.9	17898
 363.4	17977
 363.9	17979
 364.4	18007
 364.9	17921
 365.5	17998
 366.0	17985
 366.5	17943
 367.0	17989
 367.6	18021
 368.1	18017
 368.6	17957
 369.1	18021
 369.7	18072
 370.2	18004
 370.7	18008
 371.2	18051
 371.8	18109
 372.3	18038
 372.8	18117
 373.3	18131
 373.9	18084
 374.4	18106
 374.9	18158
 375.5	18062
 376.0	18187
 376.5	18157
 377.0	18180
 377.6	18135
 378.1	18221
 378.6	18167
 379.1	18177
 379.7	18167
 380.2	18243
 380.7	18250
 381.2	18218
 381.8	18216
 382.3	18265
 382.8	18255
 383.4	18303
 383.9	18259
 384.4	18408
 384.9	18326
 385.5	18346
 386.0	18353
 386.5	18427
 387.1	18364
 387.6	18394
 388.1	18399
 388.6	18422
 389.2	18419
 389.7	18451
 390.2	18443
 390.8	18538
 391.3	18515
 391.8	18527
 392.3	18532
 392.9	18539
 393.4	18547
 393.9	18624
 394.5	18642
 395.0	18607
 395.5	18641
 396.0	18653
 396.6	18630
 397.1	18731
 397.6	18735
 398.2	18739
 398.7	18750
 399.2	18844
 399.8	18729
 400.3	18797
 400.8	18844
 401.3	18822
 401.9	18843
 402.4	18871
 402.9	18875
 403.5	18907
 404.0	18905
 404.5	18872
 405.1	18893
 405.6	19003
 406.1	18991
 406.7	19014
 407.2	19035
 407.7	19129
 408.2	19143
 408.8	19161
 409.3	19205
 409.8	19263
 410.4	19251
 410.9	19270
 411.4	19230
 412.0	19308
 412.5	19370
 413.0	19339
 413.6	19394
 414.1	19373
 414.6	19417
 415.2	19467
 415.7	19420
 416.2	19487
 416.8	19488
 417.3	19484
 417.8	19517
 418.4	19615
 418.9	19568
 419.4	19707
 420.0	19616
 420.5	19691
 421.0	19648
 421.5	19746
 422.1	19735
 422.6	19795
 423.1	19832
 423.7	19818
 424.2	19811
 424.7	19863
 425.3	19846
 425.8	19879
 426.3	19871
 426.9	19948
 427.4	19899
 427.9	20021
 428.5	19980
 429.0	20036
 429.6	20012
 430.1	20116
 430.6	20143
 431.2	20113
 431.7	20240
 432.2	20237
 432.8	20247
 433.3	20379
 433.8	20417
 434.4	20421
 434.9	20463
 435.4	20542
 436.0	20549
 436.5	20572
 437.0	20660
 437.6	20663
 438.1	20727
 438.6	20739
 439.2	20782
 439.7	20781
 440.2	20734
 440.8	20771
 441.3	20779
 441.8	20787
 442.4	20761
 442.9	20785
 443.5	20821
 444.0	20821
 444.5	20854
 445.1	20779
 445.6	20825
 446.1	20863
 446.7	20901
 447.2	20934
 447.7	20949
 448.3	21048
 448.8	21040
 449.3	21111
 449.9	21103
 450.4	21239
 450.9	21318
 451.5	21363
 452.0	21381
 452.6	21449
 453.1	21553
 453.6	21604
 454.2	21548
 454.7	21659
 455.2	21719
 455.8	21795
 456.3	21773
 456.8	21916
 457.4	21872
 457.9	21902
 458.5	21958
 459.0	21935
 459.5	21986
 460.1	21944
 460.6	21996
 461.1	21989
 461.7	22039
 462.2	21996
 462.7	22039
 463.3	21977
 463.8	22046
 464.4	22119
 464.9	22081
 465.4	22153
 466.0	22079
 466.5	22170
 467.0	22129
 467.6	22218
 468.1	22331
 468.7	22294
 469.2	22257
 469.7	22384
 470.3	22393
 470.8	22469
 471.3	22482
 471.9	22484
 472.4	22566
 473.0	22636
 473.5	22691
 474.0	22720
 474.6	22757
 475.1	22781
 475.6	22881
 476.2	22917
 476.7	22917
 477.3	22999
 477.8	22973
 478.3	22930
 478.9	23150
 479.4	23079
 479.9	23118
 480.5	23135
 481.0	23190
 481.6	23241
 482.1	23335
 482.6	23351
 483.2	23401
 483.7	23533
 484.2	23509
 484.8	23394
 485.3	23520
 485.9	23618
 486.4	23619
 486.9	23670
 487.5	23660
 488.0	23699
 488.6	23781
 489.1	23827
 489.6	23896
 490.2	23911
 490.7	23900
 491.2	23887
 491.8	23961
 492.3	23931
 492.9	23987
 493.4	24004
 493.9	24028
 494.5	24025
 495.0	24086
 495.6	24010
 496.1	24022
 496.6	24070
 497.2	23993
 497.7	23962
 498.2	24038
 498.8	24050
 499.3	23977
 499.9	24037
 500.4	24037
 500.9	24047
 501.5	24056
 502.0	24158
 502.6	24167
 503.1	24282
 503.6	24291
 504.2	24294
 504.7	24355
 505.2	24467
 505.8	24510
 506.3	24657
 506.9	24729
 507.4	24777
 507.9	24823
 508.5	24926
 509.0	25037
 509.6	25178
 510.1	25213
 510.6	25317
 511.2	25399
 511.7	25464
 512.2	25582
 512.8	25653
 513.3	25675
 513.9	25706
 514.4	25793
 514.9	25906
 515.5	25827
 516.0	25910
 516.6	25877
 517.1	25923
 517.6	25894
 518.2	25863
 518.7	25782
 519.3	25810
 519.8	25815
 520.3	25773
 520.9	25714
 521.4	25692
 521.9	25709
 522.5	25611
 523.0	25585
 523.6	25612
 524.1	25461
 524.6	25492
 525.2	25513
 525.7	25551
 526.3	25503
 526.8	25598
 527.3	25571
 527.9	25621
 528.4	25631
 528.9	25719
 529.5	25775
 530.0	25807
 530.6	25901
 531.1	25965
 531.6	25950
 532.2	26115
 532.7	26146
 533.3	26264
 533.8	26441
 534.3	26555
 534.9	26617
 535.4	26650
 536.0	26793
 536.5	26896
 537.0	26941
 537.6	27031
 538.1	27145
 538.6	27227
 539.2	27223
 539.7	27303
 540.3	27427
 540.8	27449
 541.3	27447
 541.9	27511
 542.4	27539
 543.0	27616
 543.5	27591
 544.0	27581
 544.6	27617
 545.1	27641
 545.6	27669
 546.2	27656
 546.7	27557
 547.3	27621
 547.8	27591
 548.3	27623
 548.9	27530
 549.4	27523
 550.0	27489
 550.5	27537
 551.0	27571
 551.6	27517
 552.1	27528
 552.6	27523
 553.2	27480
 553.7	27461
 554.3	27502
 554.8	27574
 555.3	27444
 555.9	27515
 556.4	27501
 556.9	27621
 557.5	27661
 558.0	27647
 558.6	27655
 559.1	27740
 559.6	27755
 560.2	27796
 560.7	27828
 561.3	27823
 561.8	27834
 562.3	27981
 562.9	27995
 563.4	28060
 563.9	28073
 564.5	28108
 565.0	28115
 565.6	28158
 566.1	28175
 566.6	28189
 567.2	28195
 567.7	28295
 568.2	28250
 568.8	28258
 569.3	28246
 569.9	28318
 570.4	28303
 570.9	28300
 571.5	28306
 572.0	28313
 572.5	28382
 573.1	28342
 573.6	28423
 574.1	28421
 574.7	28441
 575.2	28441
 575.8	28511
 576.3	28611
 576.8	28603
 577.4	28647
 577.9	28696
 578.4	28711
 579.0	28754
 579.5	28885
 580.1	28850
 580.6	28912
 581.1	29027
 581.7	29086
 582.2	29078
 582.7	29145
 583.3	29222
 583.8	29232
 584.3	29220
 584.9	29307
 585.4	29335
 586.0	29346
 586.5	29407
 587.0	29412
 587.6	29500
 588.1	29482
 588.6	29556
 589.2	29519
 589.7	29553
 590.2	29551
 590.8	29539
 591.3	29563
 591.9	29511
 592.4	29543
 592.9	29471
 593.5	29450
 594.0	29419
 594.5	29400
 595.1	29349
 595.6	29293
 596.1	29315
 596.7	29253
 597.2	29263
 597.7	29174
 598.3	29169
 598.8	29108
 599.3	29084
 599.9	29014
 600.4	28983
 601.0	28968
 601.5	28945
 602.0	28918
 602.6	28870
 603.1	28883
 603.6	28882
 604.2	28963
 604.7	28895
 605.2	28976
 605.8	28907
 606.3	28949
 606.8	29028
 607.4	29046
 607.9	29111
 608.4	29081
 609.0	29155
 609.5	29226
 610.0	29235
 610.6	29360
 611.1	29320
 611.6	29407
 612.2	29445
 612.7	29534
 613.2	29581
 613.8	29569
 614.3	29657
 614.8	29736
 615.4	29754
 615.9	29892
 616.4	30012
 617.0	30021
 617.5	30149
 618.0	30246
 618.6	30265
 619.1	30370
 619.6	30510
 620.2	30606
 620.7	30747
 621.2	30797
 621.8	30905
 622.3	30999
 622.8	31042
 623.4	31125
 623.9	31229
 624.4	31257
 625.0	31283
 625.5	31300
 626.0	31339
 626.6	31398
 627.1	31381
 627.6	31340
 628.2	31306
 628.7	31353
 629.2	31325
 629.8	31330
 630.3	31306
 630.8	31267
 631.4	31203
 631.9	31185
 632.4	31041
 632.9	31001
 633.5	30953
 634.0	30870
 634.5	30867
 635.1	30763
 635.6	30713
 636.1	30645
 636.7	30610
 637.2	30563
 637.7	30423
 638.3	30472
 638.8	30415
 639.3	30395
 639.8	30301
 640.4	30283
 640.9	30279
 641.4	30173
 642.0	30128
 642.5	30124
 643.0	30086
 643.6	30155
 644.1	30102
 644.6	30115
 645.1	30118
 645.7	30129
 646.2	30081
 646.7	30104
 647.3	30135
 647.8	30163
 648.3	30143
 648.9	30202
 649.4	30147
 649.9	30227
 650.4	30261
 651.0	30337
 651.5	30372
 652.0	30451
 652.6	30439
 653.1	30547
 653.6	30504
 654.1	30593
 654.7	30599
 655.2	30721
 655.7	30785
 656.3	30828
 656.8	30829
 657.3	30913
 657.8	30905
 658.4	30945
 658.9	30993
 659.4	31083
 659.9	31118
 660.5	31118
 661.0	31172
 661.5	31236
 662.1	31214
 662.6	31246
 663.1	31223
 663.6	31317
 664.2	31276
 664.7	31259
 665.2	31217
 665.7	31313
 666.3	31273
 666.8	31271
 667.3	31265
 667.8	31241
 668.4	31253
 668.9	31253
 669.4	31209
 669.9	31219
 670.5	31151
 671.0	31152
 671.5	31103
 672.0	31126
 672.6	31110
 673.1	31135
 673.6	31036
 674.1	31043
 674.7	31017
 675.2	31045
 675.7	30913
 676.2	30892
 676.8	30940
 677.3	30926
 677.8	30844
 678.3	30921
 678.9	30852
 679.4	30777
 679.9	30819
 680.4	30797
 681.0	30758
 681.5	30769
 682.0	30715
 682.5	30740
 683.1	30638
 683.6	30657
 684.1	30589
 684.6	30675
 685.1	30618
 685.7	30622
 686.2	30591
 686.7	30548
 687.2	30547
 687.8	30595
 688.3	30537
 688.8	30556
 689.3	30502
 689.8	30524
 690.4	30511
 690.9	30531
 691.4	30549
 691.9	30551
 692.4	30533
 693.0	30597
 693.5	30569
 694.0	30555
 694.5	30548
 695.1	30534
 695.6	30504
 696.1	30572
 696.6	30562
 697.1	30578
 697.7	30608
 698.2	30547
 698.7	30570
 699.2	30530
 699.7	30538
 700.3	30487
 700.8	30467
 701.3	30541
 701.8	30508
 702.3	30443
 702.8	30446
 703.4	30422
 703.9	30396
 704.4	30355
 704.9	30309
 705.4	30297
 706.0	30344
 706.5	30315
 707.0	30217
 707.5	30194
 708.0	30193
 708.5	30123
 709.1	30161
 709.6	30117
 710.1	30055
 710.6	30017
 711.1	29981
 711.7	29985
 712.2	29953
 712.7	29949
 713.2	29899
 713.7	29897
 714.2	29844
 714.8	29910
 715.3	29855
 715.8	29839
 716.3	29837
 716.8	29766
 717.3	29745
 717.8	29839
 718.4	29848
 718.9	29788
 719.4	29871
 719.9	29784
 720.4	29825
 720.9	29848
 721.4	29839
 722.0	29867
 722.5	29867
 723.0	29866
 723.5	29883
 724.0	29861
 724.5	29852
 725.0	29893
 725.6	29838
 726.1	29901
 726.6	30001
 727.1	29952
 727.6	29997
 728.1	30023
 728.6	29979
 729.1	29985
 729.7	29965
 730.2	29997
 730.7	30026
 731.2	30058
 731.7	30049
 732.2	30063
 732.7	30035
 733.2	30081
 733.8	30049
 734.3	30080
 734.8	30075
 735.3	30107
 735.8	30119
 736.3	30106
 736.8	30157
 737.3	30221
 737.8	30175
 738.4	30189
 738.9	30153
 739.4	30243
 739.9	30225
 740.4	30258
 740.9	30233
 741.4	30235
 741.9	30230
 742.4	30243
 742.9	30229
 743.4	30288
 744.0	30202
 744.5	30183
 745.0	30181
 745.5	30235
 746.0	30189
 746.5	30187
 747.0	30120
 747.5	30093
 748.0	30055
 748.5	30066
 749.0	30059
 749.5	30111
 750.0	29942
 750.5	29963
 751.1	29934
 751.6	29914
 752.1	29869
 752.6	29818
 753.1	29826
 753.6	29742
 754.1	29693
 754.6	29699
 755.1	29623
 755.6	29599
 756.1	29491
 756.6	29542
 757.1	29488
 757.6	29435
 758.1	29364
 758.6	29328
 759.1	29228
 759.6	29226
 760.1	29143
 760.7	29063
 761.2	29109
 761.7	29037
 762.2	28979
 762.7	28976
 763.2	28837
 763.7	28865
 764.2	28769
 764.7	28727
 765.2	28712
 765.7	28639
 766.2	28565
 766.7	28555
 767.2	28465
 767.7	28421
 768.2	28357
 768.7	28283
 769.2	28237
 769.7	28245
 770.2	28184
 770.7	28158
 771.2	28100
 771.7	28052
 772.2	28033
 772.7	28045
 773.2	28007
 773.7	27930
 774.2	27864
 774.7	27877
 775.2	27830
 775.7	27795
 776.2	27763
 776.7	27781
 777.2	27694
 777.7	27739
 778.2	27692
 778.7	27724
 779.2	27710
 779.7	27720
 780.2	27563
 780.7	27607
 781.2	27595
 781.7	27634
 782.2	27560
 782.6	27617
 783.1	27598
 783.6	27559
 784.1	27511
 784.6	27499
 785.1	27503
 785.6	27490
 786.1	27496
 786.6	27502
 787.1	27443
 787.6	27419
 788.1	27401
 788.6	27377
 789.1	27348
 789.6	27355
 790.1	27354
 790.6	27333
 791.1	27227
 791.6	27210
 792.0	27188
 792.5	27197
 793.0	27151
 793.5	27125
 794.0	27039
 794.5	27095
 795.0	27037
 795.5	26997
 796.0	26961
 796.5	26879
 797.0	26865
 797.5	26863
 798.0	26684
 798.4	26681
 798.9	26633
 799.4	26599
 799.9	26562
 800.4	26398
 800.9	26445
 801.4	26438
 801.9	26351
 802.4	26233
 802.9	26243
 803.3	26190
 803.8	26107
 804.3	26017
 804.8	26019
 805.3	25935
 805.8	25856
 806.3	25802
 806.8	25739
 807.2	25681
 807.7	25615
 808.2	25582
 808.7	25461
 809.2	25424
 809.7	25317
 810.2	25328
 810.7	25227
 811.1	25185
 811.6	25137
 812.1	25058
 812.6	24971
 813.1	24973
 813.6	24954
 814.1	24901
 814.5	24827
 815.0	24806
 815.5	24717
 816.0	24643
 816.5	24666
 817.0	24582
 817.4	24543
 817.9	24525
 818.4	24427
 818.9	24475
 819.4	24408
 819.9	24351
 820.3	24291
 820.8	24263
 821.3	24237
 821.8	24216
 822.3	24135
 822.7	24087
 823.2	24118
 823.7	24051
 824.2	24034
 824.7	23985
 825.2	23975
 825.6	23929
 826.1	23901
 826.6	23928
 827.1	23889
 827.6	23871
 828.0	23795
 828.5	23751
 829.0	23767
 829.5	23703
 829.9	23683
 830.4	23711
 830.9	23675
 831.4	23685
 831.9	23634
 832.3	23687
 832.8	23609
 833.3	23601
 833.8	23658
 834.2	23635
 834.7	23483
 835.2	23555
 835.7	23547
 836.1	23527
 836.6	23494
 837.1	23479
 837.6	23480
 838.0	23493
 838.5	23501
 839.0	23495
 839.5	23479
 839.9	23390
 840.4	23387
 840.9	23343
 841.4	23365
 841.8	23387
 842.3	23377
 842.8	23383
 843.3	23363
 843.7	23258
 844.2	23233
 844.7	23300
 845.1	23260
 845.6	23177
 846.1	23178
 846.6	23208
 847.0	23102
 847.5	23134
 848.0	23101
 848.4	23120
 848.9	23070
 849.4	23031
 849.8	23031
 850.3	23021
 850.8	23048
 851.3	22988
 851.7	22967
 852.2	22953
 852.7	22933
 853.1	22891
 853.6	22834
 854.1	22849
 854.5	22801
 855.0	22765
 855.5	22738
 855.9	22774
 856.4	22745
 856.9	22648
 857.3	22675
 857.8	22625
 858.3	22630
 858.7	22564
 859.2	22571
 859.7	22571
 860.1	22606
 860.6	22567
 861.1	22487
 861.5	22513
 862.0	22490
 862.4	22443
 862.9	22394
 863.4	22422
 863.8	22407
 864.3	22388
 864.8	22289
 865.2	22315
 865.7	22316
 866.1	22311
 866.6	22218
 867.1	22274
 867.5	22240
 868.0	22195
 868.5	22127
 868.9	22104
 869.4	22177
 869.8	22119
 870.3	22060
 870.8	22110
 871.2	22043
 871.7	22025
 872.1	21953
 872.6	21990
 873.0	21949
 873.5	21998
 874.0	21963
 874.4	21842
 874.9	21854
 875.3	21791
 875.8	21677
 876.2	21460
 876.7	21286
 877.2	20939
 877.6	20499
 878.1	20046
