#xlabel Wavelength (nm)
#ylabel Spectrometer Array Counts
#title Exposure time is 10000 ms
## lambda	counts
 349.8	16936
 350.3	17205
 350.8	17456
 351.3	17641
 351.9	17736
 352.4	17851
 352.9	17916
 353.4	17884
 354.0	17875
 354.5	17910
 355.0	17918
 355.5	17931
 356.0	17894
 356.6	17865
 357.1	17916
 357.6	17902
 358.1	17929
 358.7	17870
 359.2	17891
 359.7	17903
 360.2	17948
 360.8	17912
 361.3	18015
 361.8	17958
 362.3	17992
 362.9	17951
 363.4	18029
 363.9	18033
 364.4	18060
 364.9	17978
 365.5	18051
 366.0	18033
 366.5	17995
 367.0	18042
 367.6	18073
 368.1	18072
 368.6	18010
 369.1	18075
 369.7	18124
 370.2	18053
 370.7	18059
 371.2	18102
 371.8	18157
 372.3	18090
 372.8	18171
 373.3	18189
 373.9	18135
 374.4	18154
 374.9	18209
 375.5	18107
 376.0	18239
 376.5	18209
 377.0	18233
 377.6	18191
 378.1	18273
 378.6	18216
 379.1	18226
 379.7	18212
 380.2	18291
 380.7	18304
 381.2	18271
 381.8	18268
 382.3	18312
 382.8	18300
 383.4	18353
 383.9	18312
 384.4	18465
 384.9	18374
 385.5	18399
 386.0	18404
 386.5	18481
 387.1	18415
 387.6	18442
 388.1	18452
 388.6	18473
 389.2	18472
 389.7	18499
 390.2	18491
 390.8	18588
 391.3	18564
 391.8	18582
 392.3	18577
 392.9	18590
 393.4	18597
 393.9	18681
 394.5	18689
 395.0	18660
 395.5	18691
 396.0	18699
 396.6	18683
 397.1	18785
 397.6	18781
 398.2	18797
 398.7	18802
 399.2	18896
 399.8	18779
 400.3	18846
 400.8	18897
 401.3	18877
 401.9	18901
 402.4	18925
 402.9	18923
 403.5	18960
 404.0	18965
 404.5	18929
 405.1	18948
 405.6	19055
 406.1	19045
 406.7	19066
 407.2	19089
 407.7	19189
 408.2	19201
 408.8	19213
 409.3	19263
 409.8	19323
 410.4	19301
 410.9	19315
 411.4	19287
 412.0	19361
 412.5	19420
 413.0	19390
 413.6	19445
 414.1	19424
 414.6	19471
 415.2	19522
 415.7	19477
 416.2	19539
 416.8	19539
 417.3	19541
 417.8	19571
 418.4	19667
 418.9	19624
 419.4	19759
 420.0	19670
 420.5	19748
 421.0	19699
 421.5	19798
 422.1	19788
 422.6	19852
 423.1	19888
 423.7	19873
 424.2	19867
 424.7	19913
 425.3	19907
 425.8	19935
 426.3	19926
 426.9	19999
 427.4	19951
 427.9	20070
 428.5	20035
 429.0	20089
 429.6	20070
 430.1	20169
 430.6	20200
 431.2	20170
 431.7	20293
 432.2	20294
 432.8	20301
 433.3	20437
 433.8	20469
 434.4	20478
 434.9	20519
 435.4	20603
 436.0	20607
 436.5	20627
 437.0	20718
 437.6	20718
 438.1	20782
 438.6	20803
 439.2	20842
 439.7	20839
 440.2	20789
 440.8	20829
 441.3	20831
 441.8	20841
 442.4	20814
 442.9	20842
 443.5	20880
 444.0	20879
 444.5	20914
 445.1	20835
 445.6	20879
 446.1	20919
 446.7	20959
 447.2	20992
 447.7	21004
 448.3	21097
 448.8	21099
 449.3	21165
 449.9	21159
 450.4	21294
 450.9	21369
 451.5	21414
 452.0	21441
 452.6	21507
 453.1	21607
 453.6	21665
 454.2	21603
 454.7	21719
 455.2	21775
 455.8	21857
 456.3	21830
 456.8	21976
 457.4	21936
 457.9	21963
 458.5	22023
 459.0	21998
 459.5	22043
 460.1	22011
 460.6	22058
 461.1	22053
 461.7	22099
 462.2	22055
 462.7	22095
 463.3	22031
 463.8	22109
 464.4	22178
 464.9	22138
 465.4	22215
 466.0	22142
 466.5	22226
 467.0	22189
 467.6	22275
 468.1	22386
 468.7	22351
 469.2	22318
 469.7	22439
 470.3	22456
 470.8	22532
 471.3	22536
 471.9	22545
 472.4	22622
 473.0	22699
 473.5	22752
 474.0	22769
 474.6	22820
 475.1	22838
 475.6	22939
 476.2	22975
 476.7	22982
 477.3	23061
 477.8	23029
 478.3	22988
 478.9	23207
 479.4	23139
 479.9	23179
 480.5	23191
 481.0	23245
 481.6	23301
 482.1	23397
 482.6	23415
 483.2	23459
 483.7	23595
 484.2	23575
 484.8	23461
 485.3	23578
 485.9	23684
 486.4	23674
 486.9	23728
 487.5	23721
 488.0	23762
 488.6	23845
 489.1	23887
 489.6	23953
 490.2	23977
 490.7	23963
 491.2	23951
 491.8	24026
 492.3	23992
 492.9	24048
 493.4	24066
 493.9	24083
 494.5	24089
 495.0	24142
 495.6	24071
 496.1	24078
 496.6	24135
 497.2	24054
 497.7	24028
 498.2	24099
 498.8	24108
 499.3	24045
 499.9	24097
 500.4	24094
 500.9	24105
 501.5	24120
 502.0	24216
 502.6	24225
 503.1	24350
 503.6	24353
 504.2	24359
 504.7	24419
 505.2	24531
 505.8	24571
 506.3	24718
 506.9	24796
 507.4	24835
 507.9	24884
 508.5	24991
 509.0	25102
 509.6	25245
 510.1	25279
 510.6	25381
 511.2	25468
 511.7	25526
 512.2	25642
 512.8	25720
 513.3	25740
 513.9	25783
 514.4	25866
 514.9	25970
 515.5	25895
 516.0	25980
 516.6	25942
 517.1	25995
 517.6	25961
 518.2	25926
 518.7	25851
 519.3	25873
 519.8	25876
 520.3	25847
 520.9	25783
 521.4	25755
 521.9	25778
 522.5	25670
 523.0	25656
 523.6	25674
 524.1	25520
 524.6	25551
 525.2	25575
 525.7	25611
 526.3	25563
 526.8	25660
 527.3	25630
 527.9	25685
 528.4	25698
 528.9	25780
 529.5	25833
 530.0	25875
 530.6	25963
 531.1	26030
 531.6	26013
 532.2	26183
 532.7	26213
 533.3	26327
 533.8	26513
 534.3	26617
 534.9	26680
 535.4	26717
 536.0	26853
 536.5	26971
 537.0	27009
 537.6	27099
 538.1	27213
 538.6	27287
 539.2	27298
 539.7	27367
 540.3	27505
 540.8	27516
 541.3	27515
 541.9	27583
 542.4	27605
 543.0	27687
 543.5	27665
 544.0	27652
 544.6	27692
 545.1	27715
 545.6	27734
 546.2	27723
 546.7	27624
 547.3	27685
 547.8	27659
 548.3	27689
 548.9	27600
 549.4	27593
 550.0	27553
 550.5	27610
 551.0	27639
 551.6	27591
 552.1	27595
 552.6	27602
 553.2	27545
 553.7	27537
 554.3	27567
 554.8	27637
 555.3	27513
 555.9	27587
 556.4	27571
 556.9	27690
 557.5	27731
 558.0	27717
 558.6	27727
 559.1	27810
 559.6	27827
 560.2	27865
 560.7	27893
 561.3	27896
 561.8	27910
 562.3	28059
 562.9	28064
 563.4	28135
 563.9	28142
 564.5	28175
 565.0	28191
 565.6	28230
 566.1	28243
 566.6	28265
 567.2	28265
 567.7	28365
 568.2	28317
 568.8	28322
 569.3	28325
 569.9	28384
 570.4	28370
 570.9	28359
 571.5	28367
 572.0	28381
 572.5	28445
 573.1	28411
 573.6	28489
 574.1	28493
 574.7	28513
 575.2	28515
 575.8	28580
 576.3	28675
 576.8	28675
 577.4	28713
 577.9	28765
 578.4	28779
 579.0	28818
 579.5	28963
 580.1	28923
 580.6	28985
 581.1	29097
 581.7	29159
 582.2	29151
 582.7	29221
 583.3	29293
 583.8	29311
 584.3	29293
 584.9	29376
 585.4	29407
 586.0	29424
 586.5	29479
 587.0	29485
 587.6	29576
 588.1	29555
 588.6	29632
 589.2	29597
 589.7	29631
 590.2	29633
 590.8	29614
 591.3	29642
 591.9	29584
 592.4	29625
 592.9	29546
 593.5	29522
 594.0	29490
 594.5	29477
 595.1	29421
 595.6	29366
 596.1	29387
 596.7	29329
 597.2	29334
 597.7	29245
 598.3	29231
 598.8	29180
 599.3	29151
 599.9	29086
 600.4	29053
 601.0	29041
 601.5	29009
 602.0	28987
 602.6	28939
 603.1	28953
 603.6	28954
 604.2	29031
 604.7	28966
 605.2	29039
 605.8	28975
 606.3	29017
 606.8	29097
 607.4	29117
 607.9	29182
 608.4	29151
 609.0	29220
 609.5	29295
 610.0	29307
 610.6	29427
 611.1	29389
 611.6	29478
 612.2	29513
 612.7	29605
 613.2	29650
 613.8	29637
 614.3	29724
 614.8	29809
 615.4	29823
 615.9	29964
 616.4	30083
 617.0	30094
 617.5	30229
 618.0	30318
 618.6	30340
 619.1	30450
 619.6	30586
 620.2	30683
 620.7	30823
 621.2	30874
 621.8	30980
 622.3	31071
 622.8	31119
 623.4	31199
 623.9	31311
 624.4	31329
 625.0	31362
 625.5	31381
 626.0	31414
 626.6	31477
 627.1	31459
 627.6	31419
 628.2	31393
 628.7	31427
 629.2	31410
 629.8	31411
 630.3	31382
 630.8	31348
 631.4	31286
 631.9	31255
 632.4	31111
 632.9	31073
 633.5	31022
 634.0	30938
 634.5	30936
 635.1	30837
 635.6	30784
 636.1	30710
 636.7	30683
 637.2	30637
 637.7	30501
 638.3	30550
 638.8	30488
 639.3	30471
 639.8	30370
 640.4	30354
 640.9	30349
 641.4	30246
 642.0	30199
 642.5	30195
 643.0	30154
 643.6	30230
 644.1	30167
 644.6	30186
 645.1	30191
 645.7	30198
 646.2	30145
 646.7	30176
 647.3	30203
 647.8	30230
 648.3	30214
 648.9	30275
 649.4	30212
 649.9	30296
 650.4	30331
 651.0	30409
 651.5	30442
 652.0	30519
 652.6	30507
 653.1	30625
 653.6	30575
 654.1	30663
 654.7	30675
 655.2	30793
 655.7	30859
 656.3	30904
 656.8	30893
 657.3	30986
 657.8	30985
 658.4	31022
 658.9	31063
 659.4	31162
 659.9	31187
 660.5	31181
 661.0	31245
 661.5	31310
 662.1	31293
 662.6	31321
 663.1	31298
 663.6	31395
 664.2	31349
 664.7	31336
 665.2	31287
 665.7	31384
 666.3	31351
 666.8	31345
 667.3	31343
 667.8	31313
 668.4	31322
 668.9	31320
 669.4	31285
 669.9	31296
 670.5	31218
 671.0	31224
 671.5	31171
 672.0	31201
 672.6	31180
 673.1	31201
 673.6	31106
 674.1	31111
 674.7	31087
 675.2	31114
 675.7	30990
 676.2	30962
 676.8	31009
 677.3	31001
 677.8	30915
 678.3	30988
 678.9	30917
 679.4	30841
 679.9	30891
 680.4	30867
 681.0	30820
 681.5	30838
 682.0	30785
 682.5	30801
 683.1	30707
 683.6	30721
 684.1	30661
 684.6	30743
 685.1	30685
 685.7	30689
 686.2	30663
 686.7	30624
 687.2	30608
 687.8	30661
 688.3	30603
 688.8	30616
 689.3	30561
 689.8	30594
 690.4	30579
 690.9	30602
 691.4	30616
 691.9	30619
 692.4	30601
 693.0	30659
 693.5	30636
 694.0	30625
 694.5	30619
 695.1	30604
 695.6	30579
 696.1	30639
 696.6	30632
 697.1	30646
 697.7	30674
 698.2	30608
 698.7	30629
 699.2	30595
 699.7	30603
 700.3	30557
 700.8	30531
 701.3	30610
 701.8	30565
 702.3	30511
 702.8	30510
 703.4	30492
 703.9	30458
 704.4	30421
 704.9	30377
 705.4	30366
 706.0	30409
 706.5	30385
 707.0	30282
 707.5	30257
 708.0	30262
 708.5	30190
 709.1	30232
 709.6	30177
 710.1	30120
 710.6	30082
 711.1	30050
 711.7	30047
 712.2	30016
 712.7	30010
 713.2	29971
 713.7	29960
 714.2	29902
 714.8	29979
 715.3	29914
 715.8	29906
 716.3	29903
 716.8	29827
 717.3	29812
 717.8	29907
 718.4	29914
 718.9	29854
 719.4	29929
 719.9	29845
 720.4	29893
 720.9	29911
 721.4	29901
 722.0	29933
 722.5	29934
 723.0	29936
 723.5	29947
 724.0	29925
 724.5	29917
 725.0	29960
 725.6	29900
 726.1	29964
 726.6	30073
 727.1	30013
 727.6	30059
 728.1	30089
 728.6	30047
 729.1	30046
 729.7	30037
 730.2	30058
 730.7	30089
 731.2	30124
 731.7	30105
 732.2	30122
 732.7	30102
 733.2	30142
 733.8	30116
 734.3	30143
 734.8	30138
 735.3	30174
 735.8	30178
 736.3	30176
 736.8	30224
 737.3	30287
 737.8	30243
 738.4	30253
 738.9	30219
 739.4	30309
 739.9	30293
 740.4	30319
 740.9	30302
 741.4	30305
 741.9	30297
 742.4	30311
 742.9	30299
 743.4	30360
 744.0	30263
 744.5	30248
 745.0	30245
 745.5	30299
 746.0	30259
 746.5	30263
 747.0	30189
 747.5	30159
 748.0	30119
 748.5	30130
 749.0	30116
 749.5	30175
 750.0	30004
 750.5	30019
 751.1	29999
 751.6	29975
 752.1	29930
 752.6	29875
 753.1	29897
 753.6	29807
 754.1	29751
 754.6	29763
 755.1	29692
 755.6	29667
 756.1	29559
 756.6	29606
 757.1	29546
 757.6	29501
 758.1	29423
 758.6	29391
 759.1	29288
 759.6	29290
 760.1	29207
 760.7	29128
 761.2	29171
 761.7	29097
 762.2	29049
 762.7	29044
 763.2	28899
 763.7	28931
 764.2	28831
 764.7	28789
 765.2	28772
 765.7	28691
 766.2	28624
 766.7	28615
 767.2	28523
 767.7	28479
 768.2	28419
 768.7	28349
 769.2	28299
 769.7	28309
 770.2	28254
 770.7	28215
 771.2	28162
 771.7	28116
 772.2	28091
 772.7	28112
 773.2	28067
 773.7	27997
 774.2	27927
 774.7	27945
 775.2	27897
 775.7	27863
 776.2	27823
 776.7	27842
 777.2	27750
 777.7	27799
 778.2	27758
 778.7	27783
 779.2	27771
 779.7	27780
 780.2	27626
 780.7	27675
 781.2	27659
 781.7	27700
 782.2	27623
 782.6	27683
 783.1	27668
 783.6	27621
 784.1	27567
 784.6	27556
 785.1	27559
 785.6	27547
 786.1	27556
 786.6	27565
 787.1	27505
 787.6	27484
 788.1	27463
 788.6	27439
 789.1	27413
 789.6	27419
 790.1	27418
 790.6	27399
 791.1	27292
 791.6	27270
 792.0	27255
 792.5	27263
 793.0	27215
 793.5	27182
 794.0	27103
 794.5	27157
 795.0	27095
 795.5	27056
 796.0	27023
 796.5	26940
 797.0	26929
 797.5	26926
 798.0	26756
 798.4	26747
 798.9	26695
 799.4	26662
 799.9	26626
 800.4	26459
 800.9	26505
 801.4	26502
 801.9	26413
 802.4	26297
 802.9	26302
 803.3	26247
 803.8	26167
 804.3	26079
 804.8	26079
 805.3	25987
 805.8	25918
 806.3	25864
 806.8	25806
 807.2	25744
 807.7	25671
 808.2	25641
 808.7	25525
 809.2	25485
 809.7	25375
 810.2	25393
 810.7	25282
 811.1	25251
 811.6	25197
 812.1	25116
 812.6	25029
 813.1	25035
 813.6	25011
 814.1	24960
 814.5	24883
 815.0	24855
 815.5	24774
 816.0	24702
 816.5	24724
 817.0	24638
 817.4	24596
 817.9	24587
 818.4	24482
 818.9	24529
 819.4	24459
 819.9	24404
 820.3	24356
 820.8	24320
 821.3	24296
 821.8	24275
 822.3	24186
 822.7	24145
 823.2	24176
 823.7	24108
 824.2	24087
 824.7	24043
 825.2	24030
 825.6	23986
 826.1	23955
 826.6	23983
 827.1	23947
 827.6	23927
 828.0	23855
 828.5	23808
 829.0	23824
 829.5	23756
 829.9	23745
 830.4	23775
 830.9	23737
 831.4	23750
 831.9	23688
 832.3	23743
 832.8	23663
 833.3	23659
 833.8	23717
 834.2	23695
 834.7	23538
 835.2	23619
 835.7	23605
 836.1	23583
 836.6	23549
 837.1	23545
 837.6	23531
 838.0	23549
 838.5	23562
 839.0	23555
 839.5	23537
 839.9	23451
 840.4	23443
 840.9	23402
 841.4	23428
 841.8	23436
 842.3	23434
 842.8	23438
 843.3	23427
 843.7	23310
 844.2	23292
 844.7	23355
 845.1	23324
 845.6	23234
 846.1	23242
 846.6	23261
 847.0	23155
 847.5	23190
 848.0	23158
 848.4	23182
 848.9	23127
 849.4	23091
 849.8	23091
 850.3	23079
 850.8	23100
 851.3	23050
 851.7	23023
 852.2	23013
 852.7	22984
 853.1	22952
 853.6	22888
 854.1	22905
 854.5	22855
 855.0	22818
 855.5	22797
 855.9	22836
 856.4	22803
 856.9	22704
 857.3	22734
 857.8	22678
 858.3	22683
 858.7	22615
 859.2	22621
 859.7	22624
 860.1	22665
 860.6	22623
 861.1	22543
 861.5	22574
 862.0	22552
 862.4	22505
 862.9	22457
 863.4	22474
 863.8	22463
 864.3	22439
 864.8	22346
 865.2	22370
 865.7	22373
 866.1	22367
 866.6	22270
 867.1	22333
 867.5	22296
 868.0	22259
 868.5	22195
 868.9	22173
 869.4	22245
 869.8	22187
 870.3	22127
 870.8	22175
 871.2	22115
 871.7	22093
 872.1	22019
 872.6	22047
 873.0	22009
 873.5	22065
 874.0	22044
 874.4	21927
 874.9	21955
 875.3	21903
 875.8	21797
 876.2	21590
 876.7	21412
 877.2	21053
 877.6	20591
 878.1	20102
