#xlabel Wavelength (nm)
#ylabel Spectrometer Array Counts
#title Exposure time is 10000 ms
## lambda	counts
 349.8	16813
 350.3	17054
 350.8	17287
 351.3	17466
 351.9	17565
 352.4	17682
 352.9	17759
 353.4	17731
 354.0	17736
 354.5	17782
 355.0	17793
 355.5	17808
 356.0	17771
 356.6	17746
 357.1	17797
 357.6	17774
 358.1	17797
 358.7	17736
 359.2	17751
 359.7	17763
 360.2	17805
 360.8	17766
 361.3	17862
 361.8	17807
 362.3	17838
 362.9	17798
 363.4	17868
 363.9	17872
 364.4	17898
 364.9	17812
 365.5	17889
 366.0	17871
 366.5	17830
 367.0	17876
 367.6	17904
 368.1	17901
 368.6	17843
 369.1	17907
 369.7	17954
 370.2	17883
 370.7	17885
 371.2	17929
 371.8	17986
 372.3	17914
 372.8	17996
 373.3	18009
 373.9	17963
 374.4	17979
 374.9	18035
 375.5	17936
 376.0	18063
 376.5	18035
 377.0	18060
 377.6	18010
 378.1	18094
 378.6	18036
 379.1	18045
 379.7	18038
 380.2	18113
 380.7	18118
 381.2	18087
 381.8	18079
 382.3	18126
 382.8	18113
 383.4	18167
 383.9	18120
 384.4	18269
 384.9	18191
 385.5	18210
 386.0	18217
 386.5	18289
 387.1	18231
 387.6	18257
 388.1	18263
 388.6	18290
 389.2	18282
 389.7	18311
 390.2	18303
 390.8	18396
 391.3	18377
 391.8	18389
 392.3	18385
 392.9	18395
 393.4	18399
 393.9	18479
 394.5	18491
 395.0	18455
 395.5	18483
 396.0	18497
 396.6	18483
 397.1	18574
 397.6	18581
 398.2	18591
 398.7	18596
 399.2	18685
 399.8	18576
 400.3	18648
 400.8	18696
 401.3	18677
 401.9	18697
 402.4	18721
 402.9	18722
 403.5	18755
 404.0	18754
 404.5	18724
 405.1	18742
 405.6	18844
 406.1	18831
 406.7	18850
 407.2	18877
 407.7	18969
 408.2	18978
 408.8	18986
 409.3	19033
 409.8	19090
 410.4	19064
 410.9	19083
 411.4	19050
 412.0	19126
 412.5	19181
 413.0	19150
 413.6	19204
 414.1	19177
 414.6	19219
 415.2	19271
 415.7	19223
 416.2	19281
 416.8	19282
 417.3	19280
 417.8	19311
 418.4	19405
 418.9	19359
 419.4	19497
 420.0	19397
 420.5	19477
 421.0	19431
 421.5	19528
 422.1	19513
 422.6	19574
 423.1	19613
 423.7	19590
 424.2	19587
 424.7	19636
 425.3	19620
 425.8	19650
 426.3	19641
 426.9	19710
 427.4	19664
 427.9	19781
 428.5	19741
 429.0	19797
 429.6	19771
 430.1	19863
 430.6	19883
 431.2	19855
 431.7	19973
 432.2	19970
 432.8	19974
 433.3	20103
 433.8	20137
 434.4	20139
 434.9	20172
 435.4	20246
 436.0	20252
 436.5	20270
 437.0	20361
 437.6	20359
 438.1	20417
 438.6	20429
 439.2	20474
 439.7	20468
 440.2	20424
 440.8	20458
 441.3	20462
 441.8	20475
 442.4	20447
 442.9	20473
 443.5	20511
 444.0	20508
 444.5	20538
 445.1	20465
 445.6	20507
 446.1	20547
 446.7	20575
 447.2	20612
 447.7	20620
 448.3	20711
 448.8	20703
 449.3	20774
 449.9	20756
 450.4	20886
 450.9	20958
 451.5	20999
 452.0	21013
 452.6	21069
 453.1	21170
 453.6	21211
 454.2	21148
 454.7	21257
 455.2	21314
 455.8	21384
 456.3	21356
 456.8	21500
 457.4	21447
 457.9	21482
 458.5	21540
 459.0	21511
 459.5	21553
 460.1	21517
 460.6	21567
 461.1	21563
 461.7	21606
 462.2	21563
 462.7	21603
 463.3	21539
 463.8	21611
 464.4	21685
 464.9	21639
 465.4	21717
 466.0	21640
 466.5	21729
 467.0	21686
 467.6	21764
 468.1	21868
 468.7	21833
 469.2	21795
 469.7	21917
 470.3	21924
 470.8	21987
 471.3	21999
 471.9	22001
 472.4	22073
 473.0	22143
 473.5	22189
 474.0	22209
 474.6	22246
 475.1	22262
 475.6	22362
 476.2	22394
 476.7	22395
 477.3	22477
 477.8	22441
 478.3	22398
 478.9	22613
 479.4	22531
 479.9	22567
 480.5	22582
 481.0	22633
 481.6	22679
 482.1	22769
 482.6	22772
 483.2	22815
 483.7	22950
 484.2	22923
 484.8	22808
 485.3	22926
 485.9	23024
 486.4	23010
 486.9	23059
 487.5	23047
 488.0	23081
 488.6	23158
 489.1	23199
 489.6	23264
 490.2	23283
 490.7	23259
 491.2	23246
 491.8	23315
 492.3	23284
 492.9	23342
 493.4	23355
 493.9	23379
 494.5	23382
 495.0	23438
 495.6	23361
 496.1	23369
 496.6	23427
 497.2	23343
 497.7	23311
 498.2	23385
 498.8	23402
 499.3	23331
 499.9	23384
 500.4	23388
 500.9	23390
 501.5	23404
 502.0	23491
 502.6	23497
 503.1	23611
 503.6	23615
 504.2	23613
 504.7	23662
 505.2	23769
 505.8	23804
 506.3	23942
 506.9	24011
 507.4	24039
 507.9	24084
 508.5	24175
 509.0	24271
 509.6	24409
 510.1	24433
 510.6	24525
 511.2	24596
 511.7	24650
 512.2	24759
 512.8	24828
 513.3	24841
 513.9	24868
 514.4	24956
 514.9	25055
 515.5	24974
 516.0	25058
 516.6	25026
 517.1	25067
 517.6	25043
 518.2	25011
 518.7	24933
 519.3	24964
 519.8	24965
 520.3	24934
 520.9	24879
 521.4	24862
 521.9	24884
 522.5	24779
 523.0	24765
 523.6	24787
 524.1	24638
 524.6	24673
 525.2	24695
 525.7	24734
 526.3	24671
 526.8	24773
 527.3	24742
 527.9	24783
 528.4	24796
 528.9	24877
 529.5	24933
 530.0	24959
 530.6	25042
 531.1	25099
 531.6	25067
 532.2	25230
 532.7	25255
 533.3	25353
 533.8	25528
 534.3	25624
 534.9	25679
 535.4	25706
 536.0	25835
 536.5	25939
 537.0	25964
 537.6	26047
 538.1	26151
 538.6	26219
 539.2	26218
 539.7	26280
 540.3	26408
 540.8	26417
 541.3	26405
 541.9	26472
 542.4	26491
 543.0	26573
 543.5	26541
 544.0	26534
 544.6	26570
 545.1	26593
 545.6	26617
 546.2	26598
 546.7	26507
 547.3	26565
 547.8	26539
 548.3	26573
 548.9	26484
 549.4	26473
 550.0	26434
 550.5	26490
 551.0	26527
 551.6	26469
 552.1	26479
 552.6	26484
 553.2	26434
 553.7	26421
 554.3	26460
 554.8	26527
 555.3	26393
 555.9	26469
 556.4	26455
 556.9	26565
 557.5	26603
 558.0	26589
 558.6	26587
 559.1	26671
 559.6	26678
 560.2	26716
 560.7	26741
 561.3	26741
 561.8	26744
 562.3	26891
 562.9	26895
 563.4	26955
 563.9	26969
 564.5	26997
 565.0	27005
 565.6	27044
 566.1	27060
 566.6	27068
 567.2	27071
 567.7	27170
 568.2	27117
 568.8	27127
 569.3	27123
 569.9	27185
 570.4	27175
 570.9	27164
 571.5	27167
 572.0	27178
 572.5	27240
 573.1	27202
 573.6	27271
 574.1	27277
 574.7	27291
 575.2	27293
 575.8	27353
 576.3	27446
 576.8	27438
 577.4	27472
 577.9	27515
 578.4	27523
 579.0	27562
 579.5	27697
 580.1	27646
 580.6	27705
 581.1	27813
 581.7	27869
 582.2	27851
 582.7	27915
 583.3	27987
 583.8	27997
 584.3	27975
 584.9	28054
 585.4	28078
 586.0	28087
 586.5	28146
 587.0	28144
 587.6	28235
 588.1	28203
 588.6	28281
 589.2	28242
 589.7	28273
 590.2	28273
 590.8	28260
 591.3	28288
 591.9	28234
 592.4	28271
 592.9	28201
 593.5	28173
 594.0	28149
 594.5	28135
 595.1	28087
 595.6	28039
 596.1	28067
 596.7	28007
 597.2	28015
 597.7	27935
 598.3	27925
 598.8	27871
 599.3	27851
 599.9	27793
 600.4	27766
 601.0	27755
 601.5	27721
 602.0	27703
 602.6	27655
 603.1	27667
 603.6	27673
 604.2	27757
 604.7	27679
 605.2	27756
 605.8	27688
 606.3	27729
 606.8	27804
 607.4	27819
 607.9	27884
 608.4	27850
 609.0	27917
 609.5	27981
 610.0	27989
 610.6	28102
 611.1	28062
 611.6	28144
 612.2	28172
 612.7	28259
 613.2	28298
 613.8	28282
 614.3	28366
 614.8	28439
 615.4	28444
 615.9	28582
 616.4	28685
 617.0	28687
 617.5	28811
 618.0	28895
 618.6	28907
 619.1	29005
 619.6	29129
 620.2	29211
 620.7	29349
 621.2	29385
 621.8	29479
 622.3	29563
 622.8	29597
 623.4	29677
 623.9	29775
 624.4	29795
 625.0	29825
 625.5	29833
 626.0	29861
 626.6	29922
 627.1	29911
 627.6	29869
 628.2	29839
 628.7	29881
 629.2	29851
 629.8	29863
 630.3	29841
 630.8	29809
 631.4	29757
 631.9	29735
 632.4	29593
 632.9	29568
 633.5	29525
 634.0	29442
 634.5	29454
 635.1	29355
 635.6	29310
 636.1	29249
 636.7	29230
 637.2	29187
 637.7	29051
 638.3	29111
 638.8	29059
 639.3	29042
 639.8	28959
 640.4	28943
 640.9	28934
 641.4	28837
 642.0	28795
 642.5	28793
 643.0	28757
 643.6	28831
 644.1	28779
 644.6	28787
 645.1	28797
 645.7	28802
 646.2	28758
 646.7	28783
 647.3	28812
 647.8	28835
 648.3	28815
 648.9	28872
 649.4	28809
 649.9	28895
 650.4	28923
 651.0	28991
 651.5	29028
 652.0	29101
 652.6	29084
 653.1	29180
 653.6	29139
 654.1	29223
 654.7	29227
 655.2	29337
 655.7	29404
 656.3	29434
 656.8	29421
 657.3	29519
 657.8	29502
 658.4	29537
 658.9	29576
 659.4	29666
 659.9	29694
 660.5	29684
 661.0	29745
 661.5	29803
 662.1	29791
 662.6	29809
 663.1	29780
 663.6	29877
 664.2	29830
 664.7	29818
 665.2	29767
 665.7	29871
 666.3	29825
 666.8	29831
 667.3	29825
 667.8	29801
 668.4	29812
 668.9	29812
 669.4	29780
 669.9	29791
 670.5	29722
 671.0	29725
 671.5	29671
 672.0	29706
 672.6	29687
 673.1	29707
 673.6	29612
 674.1	29623
 674.7	29604
 675.2	29635
 675.7	29501
 676.2	29481
 676.8	29531
 677.3	29527
 677.8	29445
 678.3	29524
 678.9	29450
 679.4	29374
 679.9	29423
 680.4	29415
 681.0	29366
 681.5	29383
 682.0	29334
 682.5	29354
 683.1	29261
 683.6	29282
 684.1	29224
 684.6	29305
 685.1	29246
 685.7	29251
 686.2	29230
 686.7	29187
 687.2	29180
 687.8	29231
 688.3	29176
 688.8	29187
 689.3	29126
 689.8	29158
 690.4	29147
 690.9	29162
 691.4	29182
 691.9	29188
 692.4	29166
 693.0	29226
 693.5	29202
 694.0	29185
 694.5	29182
 695.1	29163
 695.6	29130
 696.1	29198
 696.6	29182
 697.1	29203
 697.7	29230
 698.2	29167
 698.7	29189
 699.2	29153
 699.7	29165
 700.3	29115
 700.8	29095
 701.3	29178
 701.8	29129
 702.3	29075
 702.8	29071
 703.4	29052
 703.9	29030
 704.4	28993
 704.9	28949
 705.4	28939
 706.0	28998
 706.5	28963
 707.0	28863
 707.5	28841
 708.0	28843
 708.5	28777
 709.1	28827
 709.6	28775
 710.1	28719
 710.6	28683
 711.1	28657
 711.7	28659
 712.2	28632
 712.7	28635
 713.2	28591
 713.7	28584
 714.2	28529
 714.8	28602
 715.3	28545
 715.8	28538
 716.3	28539
 716.8	28467
 717.3	28449
 717.8	28541
 718.4	28552
 718.9	28499
 719.4	28580
 719.9	28490
 720.4	28533
 720.9	28561
 721.4	28544
 722.0	28575
 722.5	28569
 723.0	28566
 723.5	28580
 724.0	28565
 724.5	28553
 725.0	28594
 725.6	28541
 726.1	28596
 726.6	28702
 727.1	28643
 727.6	28689
 728.1	28715
 728.6	28679
 729.1	28671
 729.7	28656
 730.2	28687
 730.7	28715
 731.2	28747
 731.7	28731
 732.2	28749
 732.7	28727
 733.2	28763
 733.8	28735
 734.3	28758
 734.8	28751
 735.3	28789
 735.8	28790
 736.3	28781
 736.8	28834
 737.3	28887
 737.8	28846
 738.4	28852
 738.9	28810
 739.4	28905
 739.9	28893
 740.4	28911
 740.9	28890
 741.4	28896
 741.9	28889
 742.4	28906
 742.9	28887
 743.4	28953
 744.0	28857
 744.5	28847
 745.0	28849
 745.5	28901
 746.0	28863
 746.5	28866
 747.0	28805
 747.5	28770
 748.0	28737
 748.5	28747
 749.0	28741
 749.5	28795
 750.0	28631
 750.5	28656
 751.1	28634
 751.6	28616
 752.1	28573
 752.6	28528
 753.1	28547
 753.6	28461
 754.1	28411
 754.6	28422
 755.1	28353
 755.6	28331
 756.1	28223
 756.6	28287
 757.1	28231
 757.6	28188
 758.1	28117
 758.6	28094
 759.1	27995
 759.6	28002
 760.1	27923
 760.7	27843
 761.2	27898
 761.7	27823
 762.2	27776
 762.7	27783
 763.2	27643
 763.7	27675
 764.2	27579
 764.7	27548
 765.2	27541
 765.7	27471
 766.2	27405
 766.7	27405
 767.2	27310
 767.7	27285
 768.2	27231
 768.7	27158
 769.2	27121
 769.7	27126
 770.2	27071
 770.7	27042
 771.2	26995
 771.7	26950
 772.2	26942
 772.7	26957
 773.2	26916
 773.7	26843
 774.2	26785
 774.7	26802
 775.2	26761
 775.7	26725
 776.2	26696
 776.7	26710
 777.2	26627
 777.7	26678
 778.2	26637
 778.7	26670
 779.2	26659
 779.7	26669
 780.2	26512
 780.7	26561
 781.2	26551
 781.7	26598
 782.2	26514
 782.6	26582
 783.1	26566
 783.6	26529
 784.1	26481
 784.6	26465
 785.1	26469
 785.6	26458
 786.1	26467
 786.6	26481
 787.1	26417
 787.6	26404
 788.1	26384
 788.6	26357
 789.1	26334
 789.6	26344
 790.1	26343
 790.6	26327
 791.1	26223
 791.6	26209
 792.0	26196
 792.5	26207
 793.0	26168
 793.5	26139
 794.0	26057
 794.5	26113
 795.0	26057
 795.5	26027
 796.0	25991
 796.5	25921
 797.0	25911
 797.5	25919
 798.0	25745
 798.4	25746
 798.9	25698
 799.4	25669
 799.9	25637
 800.4	25480
 800.9	25533
 801.4	25542
 801.9	25457
 802.4	25350
 802.9	25364
 803.3	25311
 803.8	25239
 804.3	25154
 804.8	25163
 805.3	25078
 805.8	25013
 806.3	24975
 806.8	24920
 807.2	24865
 807.7	24798
 808.2	24776
 808.7	24665
 809.2	24635
 809.7	24531
 810.2	24550
 810.7	24451
 811.1	24418
 811.6	24378
 812.1	24297
 812.6	24223
 813.1	24233
 813.6	24215
 814.1	24164
 814.5	24093
 815.0	24079
 815.5	24001
 816.0	23928
 816.5	23961
 817.0	23880
 817.4	23838
 817.9	23838
 818.4	23736
 818.9	23789
 819.4	23723
 819.9	23673
 820.3	23619
 820.8	23599
 821.3	23573
 821.8	23560
 822.3	23475
 822.7	23436
 823.2	23474
 823.7	23407
 824.2	23393
 824.7	23347
 825.2	23343
 825.6	23294
 826.1	23270
 826.6	23304
 827.1	23269
 827.6	23253
 828.0	23174
 828.5	23138
 829.0	23154
 829.5	23085
 829.9	23075
 830.4	23114
 830.9	23078
 831.4	23088
 831.9	23031
 832.3	23092
 832.8	23018
 833.3	23012
 833.8	23067
 834.2	23049
 834.7	22892
 835.2	22977
 835.7	22963
 836.1	22945
 836.6	22915
 837.1	22903
 837.6	22902
 838.0	22919
 838.5	22935
 839.0	22926
 839.5	22907
 839.9	22819
 840.4	22822
 840.9	22775
 841.4	22801
 841.8	22815
 842.3	22818
 842.8	22821
 843.3	22808
 843.7	22698
 844.2	22677
 844.7	22750
 845.1	22719
 845.6	22628
 846.1	22635
 846.6	22659
 847.0	22555
 847.5	22592
 848.0	22559
 848.4	22581
 848.9	22531
 849.4	22497
 849.8	22501
 850.3	22492
 850.8	22510
 851.3	22461
 851.7	22443
 852.2	22427
 852.7	22407
 853.1	22371
 853.6	22303
 854.1	22323
 854.5	22277
 855.0	22249
 855.5	22225
 855.9	22265
 856.4	22233
 856.9	22134
 857.3	22169
 857.8	22112
 858.3	22124
 858.7	22058
 859.2	22065
 859.7	22059
 860.1	22095
 860.6	22057
 861.1	21982
 861.5	22003
 862.0	21986
 862.4	21939
 862.9	21889
 863.4	21914
 863.8	21897
 864.3	21877
 864.8	21787
 865.2	21814
 865.7	21819
 866.1	21811
 866.6	21723
 867.1	21781
 867.5	21749
 868.0	21711
 868.5	21650
 868.9	21634
 869.4	21714
 869.8	21663
 870.3	21607
 870.8	21670
 871.2	21611
 871.7	21591
 872.1	21529
 872.6	21563
 873.0	21526
 873.5	21581
 874.0	21555
 874.4	21428
 874.9	21442
 875.3	21379
 875.8	21265
 876.2	21061
 876.7	20893
 877.2	20552
 877.6	20129
 878.1	19690
