#xlabel Wavelength (nm)
#ylabel Spectrometer Array Counts
#title Exposure time is 10000 ms
## lambda	counts
 349.8	16914
 350.3	17193
 350.8	17448
 351.3	17619
 351.9	17707
 352.4	17798
 352.9	17850
 353.4	17796
 354.0	17783
 354.5	17817
 355.0	17818
 355.5	17831
 356.0	17794
 356.6	17765
 357.1	17819
 357.6	17796
 358.1	17821
 358.7	17761
 359.2	17777
 359.7	17799
 360.2	17830
 360.8	17796
 361.3	17895
 361.8	17841
 362.3	17869
 362.9	17831
 363.4	17903
 363.9	17907
 364.4	17933
 364.9	17846
 365.5	17915
 366.0	17903
 366.5	17864
 367.0	17905
 367.6	17936
 368.1	17937
 368.6	17871
 369.1	17937
 369.7	17986
 370.2	17917
 370.7	17916
 371.2	17966
 371.8	18023
 372.3	17949
 372.8	18026
 373.3	18046
 373.9	18001
 374.4	18017
 374.9	18067
 375.5	17971
 376.0	18092
 376.5	18067
 377.0	18091
 377.6	18043
 378.1	18128
 378.6	18068
 379.1	18077
 379.7	18069
 380.2	18146
 380.7	18150
 381.2	18115
 381.8	18113
 382.3	18161
 382.8	18153
 383.4	18194
 383.9	18154
 384.4	18309
 384.9	18223
 385.5	18252
 386.0	18255
 386.5	18330
 387.1	18265
 387.6	18292
 388.1	18298
 388.6	18326
 389.2	18312
 389.7	18351
 390.2	18338
 390.8	18428
 391.3	18409
 391.8	18421
 392.3	18423
 392.9	18430
 393.4	18429
 393.9	18515
 394.5	18525
 395.0	18491
 395.5	18521
 396.0	18532
 396.6	18517
 397.1	18615
 397.6	18617
 398.2	18629
 398.7	18638
 399.2	18729
 399.8	18611
 400.3	18685
 400.8	18737
 401.3	18716
 401.9	18737
 402.4	18759
 402.9	18759
 403.5	18793
 404.0	18790
 404.5	18754
 405.1	18777
 405.6	18880
 406.1	18867
 406.7	18889
 407.2	18915
 407.7	19002
 408.2	19017
 408.8	19026
 409.3	19075
 409.8	19134
 410.4	19111
 410.9	19132
 411.4	19093
 412.0	19165
 412.5	19225
 413.0	19185
 413.6	19243
 414.1	19220
 414.6	19265
 415.2	19315
 415.7	19264
 416.2	19328
 416.8	19324
 417.3	19323
 417.8	19353
 418.4	19450
 418.9	19404
 419.4	19541
 420.0	19443
 420.5	19517
 421.0	19477
 421.5	19567
 422.1	19561
 422.6	19622
 423.1	19654
 423.7	19637
 424.2	19631
 424.7	19679
 425.3	19669
 425.8	19691
 426.3	19689
 426.9	19759
 427.4	19711
 427.9	19827
 428.5	19785
 429.0	19843
 429.6	19818
 430.1	19911
 430.6	19935
 431.2	19901
 431.7	20025
 432.2	20020
 432.8	20023
 433.3	20151
 433.8	20186
 434.4	20189
 434.9	20226
 435.4	20298
 436.0	20304
 436.5	20327
 437.0	20409
 437.6	20409
 438.1	20473
 438.6	20490
 439.2	20529
 439.7	20523
 440.2	20484
 440.8	20513
 441.3	20521
 441.8	20527
 442.4	20498
 442.9	20523
 443.5	20565
 444.0	20565
 444.5	20595
 445.1	20517
 445.6	20561
 446.1	20597
 446.7	20629
 447.2	20663
 447.7	20668
 448.3	20767
 448.8	20759
 449.3	20819
 449.9	20811
 450.4	20941
 450.9	21015
 451.5	21058
 452.0	21067
 452.6	21126
 453.1	21225
 453.6	21273
 454.2	21208
 454.7	21312
 455.2	21375
 455.8	21447
 456.3	21417
 456.8	21559
 457.4	21513
 457.9	21546
 458.5	21597
 459.0	21571
 459.5	21612
 460.1	21577
 460.6	21629
 461.1	21614
 461.7	21666
 462.2	21620
 462.7	21667
 463.3	21601
 463.8	21671
 464.4	21749
 464.9	21699
 465.4	21778
 466.0	21704
 466.5	21786
 467.0	21743
 467.6	21828
 468.1	21931
 468.7	21893
 469.2	21857
 469.7	21976
 470.3	21987
 470.8	22055
 471.3	22059
 471.9	22060
 472.4	22143
 473.0	22205
 473.5	22258
 474.0	22277
 474.6	22315
 475.1	22335
 475.6	22423
 476.2	22458
 476.7	22465
 477.3	22539
 477.8	22503
 478.3	22456
 478.9	22677
 479.4	22599
 479.9	22635
 480.5	22645
 481.0	22696
 481.6	22748
 482.1	22834
 482.6	22847
 483.2	22889
 483.7	23027
 484.2	22991
 484.8	22875
 485.3	22994
 485.9	23091
 486.4	23082
 486.9	23129
 487.5	23120
 488.0	23153
 488.6	23235
 489.1	23271
 489.6	23341
 490.2	23361
 490.7	23332
 491.2	23316
 491.8	23389
 492.3	23357
 492.9	23414
 493.4	23433
 493.9	23455
 494.5	23455
 495.0	23511
 495.6	23441
 496.1	23446
 496.6	23498
 497.2	23418
 497.7	23389
 498.2	23459
 498.8	23474
 499.3	23403
 499.9	23449
 500.4	23456
 500.9	23458
 501.5	23474
 502.0	23562
 502.6	23571
 503.1	23683
 503.6	23686
 504.2	23687
 504.7	23738
 505.2	23842
 505.8	23875
 506.3	24015
 506.9	24079
 507.4	24111
 507.9	24154
 508.5	24248
 509.0	24354
 509.6	24483
 510.1	24511
 510.6	24607
 511.2	24676
 511.7	24732
 512.2	24840
 512.8	24910
 513.3	24927
 513.9	24951
 514.4	25040
 514.9	25136
 515.5	25056
 516.0	25139
 516.6	25108
 517.1	25156
 517.6	25121
 518.2	25094
 518.7	25011
 519.3	25041
 519.8	25051
 520.3	25023
 520.9	24957
 521.4	24940
 521.9	24964
 522.5	24859
 523.0	24848
 523.6	24863
 524.1	24714
 524.6	24753
 525.2	24771
 525.7	24811
 526.3	24750
 526.8	24850
 527.3	24818
 527.9	24867
 528.4	24871
 528.9	24955
 529.5	25007
 530.0	25029
 530.6	25126
 531.1	25172
 531.6	25140
 532.2	25314
 532.7	25335
 533.3	25431
 533.8	25608
 534.3	25713
 534.9	25765
 535.4	25791
 536.0	25925
 536.5	26017
 537.0	26054
 537.6	26132
 538.1	26239
 538.6	26314
 539.2	26305
 539.7	26374
 540.3	26499
 540.8	26509
 541.3	26501
 541.9	26555
 542.4	26585
 543.0	26665
 543.5	26635
 544.0	26628
 544.6	26663
 545.1	26679
 545.6	26711
 546.2	26686
 546.7	26595
 547.3	26657
 547.8	26629
 548.3	26660
 548.9	26568
 549.4	26559
 550.0	26521
 550.5	26576
 551.0	26606
 551.6	26558
 552.1	26568
 552.6	26567
 553.2	26519
 553.7	26507
 554.3	26534
 554.8	26611
 555.3	26480
 555.9	26557
 556.4	26540
 556.9	26654
 557.5	26695
 558.0	26668
 558.6	26677
 559.1	26759
 559.6	26765
 560.2	26803
 560.7	26833
 561.3	26823
 561.8	26837
 562.3	26978
 562.9	26977
 563.4	27041
 563.9	27059
 564.5	27086
 565.0	27096
 565.6	27140
 566.1	27149
 566.6	27159
 567.2	27163
 567.7	27264
 568.2	27205
 568.8	27219
 569.3	27209
 569.9	27276
 570.4	27262
 570.9	27251
 571.5	27252
 572.0	27266
 572.5	27327
 573.1	27289
 573.6	27366
 574.1	27359
 574.7	27380
 575.2	27376
 575.8	27442
 576.3	27537
 576.8	27523
 577.4	27559
 577.9	27603
 578.4	27609
 579.0	27654
 579.5	27786
 580.1	27742
 580.6	27798
 581.1	27909
 581.7	27961
 582.2	27943
 582.7	28010
 583.3	28079
 583.8	28090
 584.3	28069
 584.9	28151
 585.4	28175
 586.0	28185
 586.5	28242
 587.0	28237
 587.6	28330
 588.1	28304
 588.6	28378
 589.2	28337
 589.7	28374
 590.2	28368
 590.8	28358
 591.3	28383
 591.9	28324
 592.4	28368
 592.9	28290
 593.5	28263
 594.0	28241
 594.5	28234
 595.1	28182
 595.6	28129
 596.1	28155
 596.7	28100
 597.2	28103
 597.7	28020
 598.3	28011
 598.8	27963
 599.3	27942
 599.9	27879
 600.4	27854
 601.0	27839
 601.5	27812
 602.0	27793
 602.6	27743
 603.1	27755
 603.6	27757
 604.2	27837
 604.7	27771
 605.2	27845
 605.8	27773
 606.3	27820
 606.8	27897
 607.4	27910
 607.9	27971
 608.4	27942
 609.0	28007
 609.5	28071
 610.0	28078
 610.6	28202
 611.1	28151
 611.6	28237
 612.2	28271
 612.7	28354
 613.2	28389
 613.8	28374
 614.3	28453
 614.8	28529
 615.4	28534
 615.9	28667
 616.4	28776
 617.0	28781
 617.5	28907
 618.0	28991
 618.6	29003
 619.1	29097
 619.6	29233
 620.2	29314
 620.7	29448
 621.2	29485
 621.8	29574
 622.3	29665
 622.8	29695
 623.4	29773
 623.9	29880
 624.4	29891
 625.0	29913
 625.5	29937
 626.0	29968
 626.6	30028
 627.1	30011
 627.6	29974
 628.2	29935
 628.7	29981
 629.2	29956
 629.8	29966
 630.3	29943
 630.8	29910
 631.4	29854
 631.9	29837
 632.4	29690
 632.9	29661
 633.5	29618
 634.0	29542
 634.5	29552
 635.1	29454
 635.6	29404
 636.1	29342
 636.7	29321
 637.2	29279
 637.7	29141
 638.3	29202
 638.8	29153
 639.3	29130
 639.8	29041
 640.4	29034
 640.9	29034
 641.4	28927
 642.0	28886
 642.5	28883
 643.0	28847
 643.6	28920
 644.1	28871
 644.6	28879
 645.1	28889
 645.7	28891
 646.2	28842
 646.7	28873
 647.3	28900
 647.8	28927
 648.3	28907
 648.9	28959
 649.4	28894
 649.9	28982
 650.4	29009
 651.0	29083
 651.5	29121
 652.0	29193
 652.6	29173
 653.1	29277
 653.6	29233
 654.1	29317
 654.7	29326
 655.2	29433
 655.7	29493
 656.3	29535
 656.8	29523
 657.3	29609
 657.8	29595
 658.4	29629
 658.9	29671
 659.4	29759
 659.9	29785
 660.5	29783
 661.0	29841
 661.5	29899
 662.1	29884
 662.6	29904
 663.1	29883
 663.6	29970
 664.2	29931
 664.7	29914
 665.2	29861
 665.7	29964
 666.3	29925
 666.8	29919
 667.3	29921
 667.8	29897
 668.4	29908
 668.9	29904
 669.4	29868
 669.9	29880
 670.5	29811
 671.0	29815
 671.5	29769
 672.0	29795
 672.6	29777
 673.1	29807
 673.6	29703
 674.1	29715
 674.7	29695
 675.2	29722
 675.7	29592
 676.2	29572
 676.8	29623
 677.3	29610
 677.8	29534
 678.3	29615
 678.9	29538
 679.4	29471
 679.9	29516
 680.4	29504
 681.0	29456
 681.5	29479
 682.0	29422
 682.5	29447
 683.1	29352
 683.6	29369
 684.1	29305
 684.6	29393
 685.1	29332
 685.7	29339
 686.2	29314
 686.7	29277
 687.2	29263
 687.8	29319
 688.3	29255
 688.8	29275
 689.3	29220
 689.8	29249
 690.4	29235
 690.9	29248
 691.4	29270
 691.9	29275
 692.4	29252
 693.0	29314
 693.5	29284
 694.0	29277
 694.5	29263
 695.1	29255
 695.6	29218
 696.1	29294
 696.6	29279
 697.1	29298
 697.7	29323
 698.2	29261
 698.7	29283
 699.2	29243
 699.7	29245
 700.3	29201
 700.8	29181
 701.3	29263
 701.8	29223
 702.3	29156
 702.8	29159
 703.4	29141
 703.9	29115
 704.4	29081
 704.9	29036
 705.4	29031
 706.0	29081
 706.5	29047
 707.0	28954
 707.5	28929
 708.0	28933
 708.5	28868
 709.1	28907
 709.6	28860
 710.1	28799
 710.6	28765
 711.1	28743
 711.7	28738
 712.2	28713
 712.7	28718
 713.2	28671
 713.7	28667
 714.2	28612
 714.8	28689
 715.3	28625
 715.8	28623
 716.3	28619
 716.8	28549
 717.3	28534
 717.8	28625
 718.4	28639
 718.9	28577
 719.4	28659
 719.9	28571
 720.4	28615
 720.9	28635
 721.4	28630
 722.0	28661
 722.5	28650
 723.0	28652
 723.5	28670
 724.0	28644
 724.5	28630
 725.0	28676
 725.6	28616
 726.1	28674
 726.6	28775
 727.1	28727
 727.6	28768
 728.1	28795
 728.6	28759
 729.1	28756
 729.7	28741
 730.2	28766
 730.7	28798
 731.2	28826
 731.7	28807
 732.2	28826
 732.7	28807
 733.2	28842
 733.8	28816
 734.3	28840
 734.8	28833
 735.3	28873
 735.8	28870
 736.3	28866
 736.8	28913
 737.3	28969
 737.8	28925
 738.4	28929
 738.9	28895
 739.4	28987
 739.9	28974
 740.4	28999
 740.9	28979
 741.4	28976
 741.9	28974
 742.4	28990
 742.9	28972
 743.4	29037
 744.0	28939
 744.5	28931
 745.0	28933
 745.5	28984
 746.0	28946
 746.5	28952
 747.0	28882
 747.5	28853
 748.0	28815
 748.5	28828
 749.0	28820
 749.5	28885
 750.0	28710
 750.5	28733
 751.1	28715
 751.6	28696
 752.1	28657
 752.6	28610
 753.1	28629
 753.6	28538
 754.1	28493
 754.6	28502
 755.1	28436
 755.6	28410
 756.1	28304
 756.6	28362
 757.1	28307
 757.6	28267
 758.1	28195
 758.6	28167
 759.1	28068
 759.6	28073
 760.1	27998
 760.7	27924
 761.2	27969
 761.7	27899
 762.2	27851
 762.7	27855
 763.2	27718
 763.7	27754
 764.2	27659
 764.7	27623
 765.2	27614
 765.7	27546
 766.2	27471
 766.7	27472
 767.2	27387
 767.7	27355
 768.2	27300
 768.7	27231
 769.2	27184
 769.7	27205
 770.2	27143
 770.7	27116
 771.2	27071
 771.7	27023
 772.2	27015
 772.7	27031
 773.2	26986
 773.7	26922
 774.2	26849
 774.7	26874
 775.2	26830
 775.7	26797
 776.2	26766
 776.7	26785
 777.2	26694
 777.7	26743
 778.2	26711
 778.7	26730
 779.2	26725
 779.7	26743
 780.2	26582
 780.7	26631
 781.2	26619
 781.7	26667
 782.2	26583
 782.6	26641
 783.1	26634
 783.6	26594
 784.1	26546
 784.6	26530
 785.1	26536
 785.6	26532
 786.1	26535
 786.6	26547
 787.1	26489
 787.6	26469
 788.1	26450
 788.6	26423
 789.1	26406
 789.6	26415
 790.1	26410
 790.6	26394
 791.1	26289
 791.6	26274
 792.0	26261
 792.5	26275
 793.0	26232
 793.5	26202
 794.0	26124
 794.5	26179
 795.0	26123
 795.5	26087
 796.0	26065
 796.5	25983
 797.0	25975
 797.5	25980
 798.0	25807
 798.4	25810
 798.9	25763
 799.4	25735
 799.9	25695
 800.4	25547
 800.9	25599
 801.4	25604
 801.9	25529
 802.4	25410
 802.9	25421
 803.3	25376
 803.8	25303
 804.3	25221
 804.8	25231
 805.3	25141
 805.8	25081
 806.3	25035
 806.8	24977
 807.2	24924
 807.7	24857
 808.2	24836
 808.7	24723
 809.2	24689
 809.7	24583
 810.2	24606
 810.7	24511
 811.1	24483
 811.6	24438
 812.1	24355
 812.6	24281
 813.1	24287
 813.6	24273
 814.1	24218
 814.5	24151
 815.0	24134
 815.5	24055
 816.0	23990
 816.5	24017
 817.0	23931
 817.4	23895
 817.9	23890
 818.4	23795
 818.9	23848
 819.4	23771
 819.9	23723
 820.3	23673
 820.8	23653
 821.3	23627
 821.8	23613
 822.3	23527
 822.7	23485
 823.2	23521
 823.7	23460
 824.2	23439
 824.7	23403
 825.2	23399
 825.6	23352
 826.1	23325
 826.6	23358
 827.1	23323
 827.6	23306
 828.0	23227
 828.5	23190
 829.0	23209
 829.5	23141
 829.9	23126
 830.4	23163
 830.9	23126
 831.4	23135
 831.9	23083
 832.3	23142
 832.8	23064
 833.3	23061
 833.8	23121
 834.2	23099
 834.7	22945
 835.2	23031
 835.7	23016
 836.1	22994
 836.6	22961
 837.1	22961
 837.6	22959
 838.0	22971
 838.5	22983
 839.0	22974
 839.5	22953
 839.9	22869
 840.4	22871
 840.9	22826
 841.4	22851
 841.8	22865
 842.3	22861
 842.8	22871
 843.3	22860
 843.7	22749
 844.2	22730
 844.7	22798
 845.1	22763
 845.6	22678
 846.1	22687
 846.6	22709
 847.0	22604
 847.5	22635
 848.0	22607
 848.4	22634
 848.9	22580
 849.4	22544
 849.8	22550
 850.3	22539
 850.8	22564
 851.3	22507
 851.7	22488
 852.2	22479
 852.7	22455
 853.1	22422
 853.6	22355
 854.1	22375
 854.5	22326
 855.0	22296
 855.5	22275
 855.9	22308
 856.4	22281
 856.9	22181
 857.3	22213
 857.8	22160
 858.3	22161
 858.7	22105
 859.2	22107
 859.7	22104
 860.1	22143
 860.6	22101
 861.1	22024
 861.5	22051
 862.0	22038
 862.4	21987
 862.9	21937
 863.4	21959
 863.8	21947
 864.3	21923
 864.8	21827
 865.2	21857
 865.7	21865
 866.1	21863
 866.6	21764
 867.1	21825
 867.5	21802
 868.0	21757
 868.5	21692
 868.9	21681
 869.4	21759
 869.8	21703
 870.3	21647
 870.8	21703
 871.2	21645
 871.7	21625
 872.1	21556
 872.6	21590
 873.0	21549
 873.5	21610
 874.0	21597
 874.4	21499
 874.9	21545
 875.3	21521
 875.8	21451
 876.2	21275
 876.7	21131
 877.2	20775
 877.6	20297
 878.1	19783
