#xlabel Wavelength (nm)
#ylabel Spectrometer Array Counts
#title Exposure time is 10000 ms
## lambda	counts
 349.8	16833
 350.3	17089
 350.8	17328
 351.3	17511
 351.9	17607
 352.4	17723
 352.9	17798
 353.4	17768
 354.0	17763
 354.5	17811
 355.0	17813
 355.5	17828
 356.0	17782
 356.6	17755
 357.1	17803
 357.6	17783
 358.1	17807
 358.7	17747
 359.2	17763
 359.7	17783
 360.2	17817
 360.8	17782
 361.3	17875
 361.8	17822
 362.3	17852
 362.9	17811
 363.4	17884
 363.9	17889
 364.4	17915
 364.9	17830
 365.5	17899
 366.0	17887
 366.5	17846
 367.0	17894
 367.6	17922
 368.1	17923
 368.6	17859
 369.1	17919
 369.7	17971
 370.2	17901
 370.7	17908
 371.2	17949
 371.8	18002
 372.3	17931
 372.8	18012
 373.3	18025
 373.9	17979
 374.4	17996
 374.9	18045
 375.5	17951
 376.0	18079
 376.5	18049
 377.0	18074
 377.6	18028
 378.1	18111
 378.6	18051
 379.1	18060
 379.7	18051
 380.2	18128
 380.7	18135
 381.2	18101
 381.8	18097
 382.3	18143
 382.8	18131
 383.4	18181
 383.9	18138
 384.4	18286
 384.9	18207
 385.5	18234
 386.0	18235
 386.5	18313
 387.1	18252
 387.6	18275
 388.1	18280
 388.6	18306
 389.2	18299
 389.7	18335
 390.2	18322
 390.8	18414
 391.3	18392
 391.8	18405
 392.3	18408
 392.9	18413
 393.4	18417
 393.9	18498
 394.5	18512
 395.0	18475
 395.5	18503
 396.0	18516
 396.6	18499
 397.1	18597
 397.6	18604
 398.2	18609
 398.7	18619
 399.2	18709
 399.8	18595
 400.3	18665
 400.8	18716
 401.3	18700
 401.9	18718
 402.4	18747
 402.9	18744
 403.5	18779
 404.0	18778
 404.5	18739
 405.1	18759
 405.6	18863
 406.1	18852
 406.7	18873
 407.2	18900
 407.7	18993
 408.2	18999
 408.8	19011
 409.3	19056
 409.8	19113
 410.4	19092
 410.9	19117
 411.4	19072
 412.0	19148
 412.5	19210
 413.0	19175
 413.6	19230
 414.1	19204
 414.6	19250
 415.2	19300
 415.7	19249
 416.2	19309
 416.8	19310
 417.3	19303
 417.8	19338
 418.4	19435
 418.9	19387
 419.4	19519
 420.0	19425
 420.5	19503
 421.0	19454
 421.5	19548
 422.1	19541
 422.6	19606
 423.1	19639
 423.7	19621
 424.2	19615
 424.7	19665
 425.3	19646
 425.8	19676
 426.3	19671
 426.9	19742
 427.4	19699
 427.9	19812
 428.5	19774
 429.0	19827
 429.6	19802
 430.1	19894
 430.6	19916
 431.2	19891
 431.7	20006
 432.2	20004
 432.8	20005
 433.3	20134
 433.8	20163
 434.4	20172
 434.9	20213
 435.4	20285
 436.0	20283
 436.5	20306
 437.0	20401
 437.6	20395
 438.1	20454
 438.6	20470
 439.2	20511
 439.7	20507
 440.2	20461
 440.8	20498
 441.3	20504
 441.8	20511
 442.4	20487
 442.9	20513
 443.5	20545
 444.0	20546
 444.5	20574
 445.1	20497
 445.6	20543
 446.1	20585
 446.7	20614
 447.2	20650
 447.7	20661
 448.3	20752
 448.8	20745
 449.3	20809
 449.9	20799
 450.4	20929
 450.9	21001
 451.5	21041
 452.0	21055
 452.6	21111
 453.1	21211
 453.6	21255
 454.2	21191
 454.7	21302
 455.2	21355
 455.8	21428
 456.3	21402
 456.8	21544
 457.4	21499
 457.9	21528
 458.5	21582
 459.0	21555
 459.5	21601
 460.1	21563
 460.6	21619
 461.1	21604
 461.7	21653
 462.2	21607
 462.7	21650
 463.3	21586
 463.8	21654
 464.4	21725
 464.9	21683
 465.4	21766
 466.0	21690
 466.5	21771
 467.0	21729
 467.6	21816
 468.1	21918
 468.7	21883
 469.2	21841
 469.7	21962
 470.3	21966
 470.8	22036
 471.3	22045
 471.9	22043
 472.4	22123
 473.0	22189
 473.5	22237
 474.0	22265
 474.6	22297
 475.1	22318
 475.6	22415
 476.2	22443
 476.7	22444
 477.3	22525
 477.8	22489
 478.3	22444
 478.9	22656
 479.4	22583
 479.9	22621
 480.5	22631
 481.0	22687
 481.6	22738
 482.1	22823
 482.6	22835
 483.2	22871
 483.7	23004
 484.2	22984
 484.8	22858
 485.3	22975
 485.9	23077
 486.4	23067
 486.9	23116
 487.5	23105
 488.0	23136
 488.6	23215
 489.1	23255
 489.6	23321
 490.2	23342
 490.7	23323
 491.2	23305
 491.8	23379
 492.3	23340
 492.9	23397
 493.4	23414
 493.9	23430
 494.5	23439
 495.0	23494
 495.6	23421
 496.1	23427
 496.6	23481
 497.2	23401
 497.7	23377
 498.2	23446
 498.8	23461
 499.3	23389
 499.9	23441
 500.4	23447
 500.9	23445
 501.5	23457
 502.0	23551
 502.6	23559
 503.1	23671
 503.6	23671
 504.2	23667
 504.7	23721
 505.2	23829
 505.8	23863
 506.3	23999
 506.9	24066
 507.4	24099
 507.9	24139
 508.5	24233
 509.0	24334
 509.6	24470
 510.1	24495
 510.6	24591
 511.2	24664
 511.7	24711
 512.2	24823
 512.8	24898
 513.3	24911
 513.9	24936
 514.4	25019
 514.9	25121
 515.5	25039
 516.0	25127
 516.6	25094
 517.1	25141
 517.6	25109
 518.2	25078
 518.7	24999
 519.3	25026
 519.8	25035
 520.3	25000
 520.9	24945
 521.4	24925
 521.9	24947
 522.5	24845
 523.0	24831
 523.6	24855
 524.1	24699
 524.6	24733
 525.2	24759
 525.7	24798
 526.3	24740
 526.8	24841
 527.3	24806
 527.9	24847
 528.4	24862
 528.9	24945
 529.5	24991
 530.0	25021
 530.6	25108
 531.1	25163
 531.6	25135
 532.2	25295
 532.7	25318
 533.3	25420
 533.8	25590
 534.3	25693
 534.9	25751
 535.4	25773
 536.0	25903
 536.5	26002
 537.0	26043
 537.6	26116
 538.1	26224
 538.6	26293
 539.2	26293
 539.7	26353
 540.3	26483
 540.8	26490
 541.3	26484
 541.9	26544
 542.4	26565
 543.0	26647
 543.5	26619
 544.0	26607
 544.6	26648
 545.1	26665
 545.6	26689
 546.2	26673
 546.7	26579
 547.3	26642
 547.8	26615
 548.3	26652
 548.9	26556
 549.4	26547
 550.0	26508
 550.5	26565
 551.0	26591
 551.6	26545
 552.1	26550
 552.6	26555
 553.2	26513
 553.7	26496
 554.3	26531
 554.8	26600
 555.3	26463
 555.9	26541
 556.4	26527
 556.9	26643
 557.5	26678
 558.0	26661
 558.6	26662
 559.1	26741
 559.6	26756
 560.2	26789
 560.7	26817
 561.3	26815
 561.8	26819
 562.3	26963
 562.9	26968
 563.4	27032
 563.9	27037
 564.5	27073
 565.0	27083
 565.6	27121
 566.1	27135
 566.6	27147
 567.2	27149
 567.7	27250
 568.2	27194
 568.8	27202
 569.3	27198
 569.9	27258
 570.4	27251
 570.9	27239
 571.5	27245
 572.0	27258
 572.5	27309
 573.1	27277
 573.6	27353
 574.1	27344
 574.7	27369
 575.2	27361
 575.8	27427
 576.3	27516
 576.8	27513
 577.4	27543
 577.9	27591
 578.4	27599
 579.0	27642
 579.5	27771
 580.1	27725
 580.6	27784
 581.1	27895
 581.7	27947
 582.2	27931
 582.7	27991
 583.3	28060
 583.8	28078
 584.3	28052
 584.9	28135
 585.4	28161
 586.0	28171
 586.5	28226
 587.0	28227
 587.6	28310
 588.1	28284
 588.6	28363
 589.2	28324
 589.7	28359
 590.2	28355
 590.8	28338
 591.3	28365
 591.9	28313
 592.4	28350
 592.9	28274
 593.5	28251
 594.0	28228
 594.5	28214
 595.1	28165
 595.6	28113
 596.1	28145
 596.7	28083
 597.2	28090
 597.7	28009
 598.3	27997
 598.8	27949
 599.3	27931
 599.9	27863
 600.4	27839
 601.0	27828
 601.5	27799
 602.0	27779
 602.6	27726
 603.1	27740
 603.6	27745
 604.2	27828
 604.7	27751
 605.2	27826
 605.8	27762
 606.3	27801
 606.8	27877
 607.4	27893
 607.9	27954
 608.4	27927
 609.0	27991
 609.5	28054
 610.0	28062
 610.6	28182
 611.1	28139
 611.6	28214
 612.2	28252
 612.7	28337
 613.2	28372
 613.8	28360
 614.3	28437
 614.8	28516
 615.4	28521
 615.9	28655
 616.4	28762
 617.0	28768
 617.5	28893
 618.0	28979
 618.6	28991
 619.1	29087
 619.6	29215
 620.2	29301
 620.7	29435
 621.2	29465
 621.8	29561
 622.3	29648
 622.8	29682
 623.4	29759
 623.9	29860
 624.4	29879
 625.0	29907
 625.5	29918
 626.0	29953
 626.6	30009
 627.1	29998
 627.6	29953
 628.2	29921
 628.7	29966
 629.2	29938
 629.8	29948
 630.3	29929
 630.8	29897
 631.4	29838
 631.9	29818
 632.4	29679
 632.9	29646
 633.5	29610
 634.0	29529
 634.5	29540
 635.1	29439
 635.6	29390
 636.1	29324
 636.7	29305
 637.2	29267
 637.7	29133
 638.3	29187
 638.8	29143
 639.3	29123
 639.8	29030
 640.4	29023
 640.9	29013
 641.4	28916
 642.0	28874
 642.5	28867
 643.0	28836
 643.6	28901
 644.1	28855
 644.6	28865
 645.1	28881
 645.7	28875
 646.2	28830
 646.7	28858
 647.3	28883
 647.8	28907
 648.3	28890
 648.9	28947
 649.4	28891
 649.9	28965
 650.4	28999
 651.0	29069
 651.5	29106
 652.0	29174
 652.6	29157
 653.1	29263
 653.6	29218
 654.1	29301
 654.7	29305
 655.2	29419
 655.7	29482
 656.3	29522
 656.8	29507
 657.3	29593
 657.8	29581
 658.4	29618
 658.9	29655
 659.4	29746
 659.9	29771
 660.5	29762
 661.0	29819
 661.5	29881
 662.1	29863
 662.6	29887
 663.1	29869
 663.6	29959
 664.2	29915
 664.7	29895
 665.2	29844
 665.7	29949
 666.3	29909
 666.8	29914
 667.3	29906
 667.8	29881
 668.4	29893
 668.9	29889
 669.4	29854
 669.9	29861
 670.5	29790
 671.0	29806
 671.5	29753
 672.0	29783
 672.6	29770
 673.1	29784
 673.6	29691
 674.1	29703
 674.7	29678
 675.2	29715
 675.7	29578
 676.2	29557
 676.8	29602
 677.3	29597
 677.8	29517
 678.3	29599
 678.9	29530
 679.4	29454
 679.9	29503
 680.4	29485
 681.0	29438
 681.5	29459
 682.0	29404
 682.5	29431
 683.1	29345
 683.6	29351
 684.1	29291
 684.6	29377
 685.1	29322
 685.7	29326
 686.2	29297
 686.7	29258
 687.2	29250
 687.8	29301
 688.3	29247
 688.8	29263
 689.3	29197
 689.8	29231
 690.4	29222
 690.9	29237
 691.4	29253
 691.9	29260
 692.4	29236
 693.0	29300
 693.5	29265
 694.0	29259
 694.5	29257
 695.1	29232
 695.6	29208
 696.1	29271
 696.6	29263
 697.1	29278
 697.7	29304
 698.2	29241
 698.7	29266
 699.2	29227
 699.7	29238
 700.3	29188
 700.8	29167
 701.3	29243
 701.8	29209
 702.3	29145
 702.8	29146
 703.4	29127
 703.9	29104
 704.4	29067
 704.9	29021
 705.4	29010
 706.0	29063
 706.5	29038
 707.0	28941
 707.5	28915
 708.0	28916
 708.5	28849
 709.1	28891
 709.6	28851
 710.1	28783
 710.6	28751
 711.1	28729
 711.7	28727
 712.2	28703
 712.7	28703
 713.2	28661
 713.7	28649
 714.2	28598
 714.8	28668
 715.3	28614
 715.8	28607
 716.3	28605
 716.8	28537
 717.3	28516
 717.8	28607
 718.4	28619
 718.9	28569
 719.4	28643
 719.9	28554
 720.4	28602
 720.9	28621
 721.4	28611
 722.0	28641
 722.5	28637
 723.0	28639
 723.5	28650
 724.0	28632
 724.5	28622
 725.0	28659
 725.6	28601
 726.1	28667
 726.6	28767
 727.1	28711
 727.6	28751
 728.1	28783
 728.6	28749
 729.1	28737
 729.7	28728
 730.2	28755
 730.7	28785
 731.2	28812
 731.7	28797
 732.2	28811
 732.7	28789
 733.2	28831
 733.8	28801
 734.3	28830
 734.8	28820
 735.3	28854
 735.8	28857
 736.3	28848
 736.8	28899
 737.3	28953
 737.8	28907
 738.4	28920
 738.9	28879
 739.4	28969
 739.9	28957
 740.4	28988
 740.9	28967
 741.4	28965
 741.9	28956
 742.4	28967
 742.9	28955
 743.4	29023
 744.0	28926
 744.5	28914
 745.0	28911
 745.5	28969
 746.0	28929
 746.5	28930
 747.0	28865
 747.5	28841
 748.0	28807
 748.5	28811
 749.0	28806
 749.5	28867
 750.0	28701
 750.5	28717
 751.1	28703
 751.6	28685
 752.1	28643
 752.6	28589
 753.1	28607
 753.6	28525
 754.1	28476
 754.6	28487
 755.1	28416
 755.6	28397
 756.1	28286
 756.6	28347
 757.1	28293
 757.6	28254
 758.1	28184
 758.6	28159
 759.1	28055
 759.6	28057
 760.1	27979
 760.7	27910
 761.2	27958
 761.7	27885
 762.2	27841
 762.7	27839
 763.2	27701
 763.7	27737
 764.2	27646
 764.7	27607
 765.2	27597
 765.7	27525
 766.2	27457
 766.7	27458
 767.2	27373
 767.7	27340
 768.2	27285
 768.7	27218
 769.2	27171
 769.7	27185
 770.2	27127
 770.7	27097
 771.2	27047
 771.7	27003
 772.2	26994
 772.7	27013
 773.2	26970
 773.7	26902
 774.2	26841
 774.7	26853
 775.2	26816
 775.7	26781
 776.2	26751
 776.7	26764
 777.2	26677
 777.7	26732
 778.2	26694
 778.7	26722
 779.2	26713
 779.7	26724
 780.2	26569
 780.7	26617
 781.2	26603
 781.7	26648
 782.2	26573
 782.6	26631
 783.1	26617
 783.6	26575
 784.1	26527
 784.6	26511
 785.1	26521
 785.6	26513
 786.1	26518
 786.6	26530
 787.1	26466
 787.6	26455
 788.1	26433
 788.6	26409
 789.1	26384
 789.6	26399
 790.1	26395
 790.6	26376
 791.1	26278
 791.6	26255
 792.0	26246
 792.5	26258
 793.0	26214
 793.5	26189
 794.0	26113
 794.5	26163
 795.0	26109
 795.5	26074
 796.0	26047
 796.5	25967
 797.0	25958
 797.5	25967
 798.0	25795
 798.4	25793
 798.9	25745
 799.4	25719
 799.9	25680
 800.4	25525
 800.9	25582
 801.4	25590
 801.9	25505
 802.4	25396
 802.9	25408
 803.3	25359
 803.8	25286
 804.3	25203
 804.8	25213
 805.3	25127
 805.8	25061
 806.3	25015
 806.8	24959
 807.2	24907
 807.7	24847
 808.2	24822
 808.7	24705
 809.2	24671
 809.7	24571
 810.2	24591
 810.7	24497
 811.1	24462
 811.6	24419
 812.1	24341
 812.6	24265
 813.1	24270
 813.6	24253
 814.1	24203
 814.5	24135
 815.0	24117
 815.5	24041
 816.0	23971
 816.5	23999
 817.0	23914
 817.4	23876
 817.9	23871
 818.4	23779
 818.9	23831
 819.4	23756
 819.9	23709
 820.3	23657
 820.8	23635
 821.3	23612
 821.8	23599
 822.3	23511
 822.7	23472
 823.2	23510
 823.7	23447
 824.2	23429
 824.7	23386
 825.2	23378
 825.6	23337
 826.1	23311
 826.6	23341
 827.1	23307
 827.6	23289
 828.0	23214
 828.5	23174
 829.0	23188
 829.5	23123
 829.9	23107
 830.4	23149
 830.9	23109
 831.4	23123
 831.9	23070
 832.3	23124
 832.8	23050
 833.3	23043
 833.8	23105
 834.2	23083
 834.7	22927
 835.2	23006
 835.7	22999
 836.1	22979
 836.6	22950
 837.1	22943
 837.6	22938
 838.0	22953
 838.5	22964
 839.0	22955
 839.5	22943
 839.9	22854
 840.4	22857
 840.9	22813
 841.4	22835
 841.8	22849
 842.3	22845
 842.8	22855
 843.3	22843
 843.7	22733
 844.2	22710
 844.7	22781
 845.1	22747
 845.6	22660
 846.1	22669
 846.6	22687
 847.0	22585
 847.5	22622
 848.0	22592
 848.4	22616
 848.9	22564
 849.4	22525
 849.8	22530
 850.3	22518
 850.8	22550
 851.3	22490
 851.7	22466
 852.2	22460
 852.7	22437
 853.1	22399
 853.6	22332
 854.1	22357
 854.5	22311
 855.0	22285
 855.5	22253
 855.9	22291
 856.4	22258
 856.9	22163
 857.3	22195
 857.8	22142
 858.3	22150
 858.7	22085
 859.2	22091
 859.7	22088
 860.1	22125
 860.6	22086
 861.1	22009
 861.5	22037
 862.0	22018
 862.4	21976
 862.9	21915
 863.4	21941
 863.8	21933
 864.3	21906
 864.8	21814
 865.2	21842
 865.7	21845
 866.1	21839
 866.6	21742
 867.1	21810
 867.5	21776
 868.0	21736
 868.5	21677
 868.9	21667
 869.4	21741
 869.8	21690
 870.3	21638
 870.8	21687
 871.2	21632
 871.7	21614
 872.1	21548
 872.6	21587
 873.0	21555
 873.5	21617
 874.0	21595
 874.4	21480
 874.9	21501
 875.3	21447
 875.8	21338
 876.2	21131
 876.7	20963
 877.2	20615
 877.6	20175
 878.1	19721
