#xlabel Wavelength (nm)
#ylabel Spectrometer Array Counts
#title Exposure time is 9300 ms
## lambda	counts
 349.8	16878
 350.3	17141
 350.8	17391
 351.3	17573
 351.9	17661
 352.4	17763
 352.9	17828
 353.4	17777
 354.0	17779
 354.5	17813
 355.0	17815
 355.5	17834
 356.0	17801
 356.6	17772
 357.1	17824
 357.6	17811
 358.1	17840
 358.7	17785
 359.2	17811
 359.7	17832
 360.2	17865
 360.8	17840
 361.3	17935
 361.8	17879
 362.3	17914
 362.9	17882
 363.4	17957
 363.9	17955
 364.4	17985
 364.9	17906
 365.5	17978
 366.0	17966
 366.5	17923
 367.0	17975
 367.6	18000
 368.1	17999
 368.6	17943
 369.1	18001
 369.7	18056
 370.2	17984
 370.7	17985
 371.2	18037
 371.8	18091
 372.3	18021
 372.8	18097
 373.3	18115
 373.9	18073
 374.4	18091
 374.9	18141
 375.5	18058
 376.0	18179
 376.5	18145
 377.0	18175
 377.6	18130
 378.1	18215
 378.6	18158
 379.1	18174
 379.7	18172
 380.2	18244
 380.7	18254
 381.2	18223
 381.8	18216
 382.3	18266
 382.8	18253
 383.4	18298
 383.9	18265
 384.4	18405
 384.9	18330
 385.5	18354
 386.0	18361
 386.5	18431
 387.1	18374
 387.6	18395
 388.1	18410
 388.6	18428
 389.2	18431
 389.7	18461
 390.2	18453
 390.8	18551
 391.3	18533
 391.8	18542
 392.3	18553
 392.9	18563
 393.4	18566
 393.9	18655
 394.5	18673
 395.0	18630
 395.5	18669
 396.0	18683
 396.6	18663
 397.1	18759
 397.6	18769
 398.2	18775
 398.7	18785
 399.2	18879
 399.8	18767
 400.3	18830
 400.8	18877
 401.3	18866
 401.9	18885
 402.4	18909
 402.9	18909
 403.5	18947
 404.0	18949
 404.5	18918
 405.1	18934
 405.6	19047
 406.1	19037
 406.7	19065
 407.2	19089
 407.7	19186
 408.2	19199
 408.8	19221
 409.3	19265
 409.8	19327
 410.4	19310
 410.9	19326
 411.4	19299
 412.0	19377
 412.5	19434
 413.0	19403
 413.6	19461
 414.1	19437
 414.6	19482
 415.2	19536
 415.7	19498
 416.2	19557
 416.8	19556
 417.3	19556
 417.8	19591
 418.4	19693
 418.9	19646
 419.4	19795
 420.0	19701
 420.5	19773
 421.0	19735
 421.5	19829
 422.1	19817
 422.6	19881
 423.1	19914
 423.7	19903
 424.2	19900
 424.7	19946
 425.3	19931
 425.8	19965
 426.3	19969
 426.9	20041
 427.4	19993
 427.9	20109
 428.5	20073
 429.0	20134
 429.6	20118
 430.1	20214
 430.6	20243
 431.2	20226
 431.7	20343
 432.2	20351
 432.8	20365
 433.3	20499
 433.8	20531
 434.4	20539
 434.9	20587
 435.4	20664
 436.0	20674
 436.5	20697
 437.0	20787
 437.6	20786
 438.1	20848
 438.6	20874
 439.2	20908
 439.7	20909
 440.2	20865
 440.8	20895
 441.3	20902
 441.8	20908
 442.4	20875
 442.9	20908
 443.5	20940
 444.0	20940
 444.5	20969
 445.1	20903
 445.6	20955
 446.1	20983
 446.7	21030
 447.2	21067
 447.7	21083
 448.3	21176
 448.8	21181
 449.3	21250
 449.9	21245
 450.4	21387
 450.9	21469
 451.5	21515
 452.0	21539
 452.6	21615
 453.1	21713
 453.6	21765
 454.2	21715
 454.7	21829
 455.2	21887
 455.8	21969
 456.3	21945
 456.8	22090
 457.4	22055
 457.9	22075
 458.5	22134
 459.0	22107
 459.5	22156
 460.1	22118
 460.6	22169
 461.1	22155
 461.7	22207
 462.2	22170
 462.7	22201
 463.3	22142
 463.8	22213
 464.4	22284
 464.9	22242
 465.4	22321
 466.0	22252
 466.5	22337
 467.0	22303
 467.6	22395
 468.1	22509
 468.7	22468
 469.2	22439
 469.7	22568
 470.3	22588
 470.8	22652
 471.3	22674
 471.9	22676
 472.4	22753
 473.0	22826
 473.5	22883
 474.0	22910
 474.6	22945
 475.1	22983
 475.6	23082
 476.2	23119
 476.7	23119
 477.3	23207
 477.8	23180
 478.3	23137
 478.9	23355
 479.4	23279
 479.9	23325
 480.5	23339
 481.0	23402
 481.6	23459
 482.1	23549
 482.6	23563
 483.2	23612
 483.7	23744
 484.2	23728
 484.8	23620
 485.3	23739
 485.9	23841
 486.4	23836
 486.9	23892
 487.5	23885
 488.0	23927
 488.6	24011
 489.1	24050
 489.6	24127
 490.2	24139
 490.7	24127
 491.2	24104
 491.8	24181
 492.3	24151
 492.9	24207
 493.4	24225
 493.9	24246
 494.5	24247
 495.0	24299
 495.6	24229
 496.1	24235
 496.6	24286
 497.2	24207
 497.7	24175
 498.2	24249
 498.8	24260
 499.3	24192
 499.9	24247
 500.4	24254
 500.9	24260
 501.5	24275
 502.0	24383
 502.6	24394
 503.1	24514
 503.6	24519
 504.2	24530
 504.7	24591
 505.2	24707
 505.8	24754
 506.3	24903
 506.9	24983
 507.4	25033
 507.9	25077
 508.5	25183
 509.0	25303
 509.6	25439
 510.1	25481
 510.6	25589
 511.2	25677
 511.7	25733
 512.2	25843
 512.8	25927
 513.3	25953
 513.9	25983
 514.4	26072
 514.9	26171
 515.5	26093
 516.0	26176
 516.6	26138
 517.1	26185
 517.6	26147
 518.2	26117
 518.7	26035
 519.3	26063
 519.8	26057
 520.3	26019
 520.9	25956
 521.4	25932
 521.9	25951
 522.5	25839
 523.0	25823
 523.6	25840
 524.1	25692
 524.6	25733
 525.2	25743
 525.7	25790
 526.3	25735
 526.8	25837
 527.3	25814
 527.9	25863
 528.4	25881
 528.9	25975
 529.5	26027
 530.0	26066
 530.6	26161
 531.1	26220
 531.6	26205
 532.2	26374
 532.7	26417
 533.3	26533
 533.8	26718
 534.3	26831
 534.9	26901
 535.4	26942
 536.0	27079
 536.5	27187
 537.0	27230
 537.6	27324
 538.1	27435
 538.6	27519
 539.2	27518
 539.7	27596
 540.3	27728
 540.8	27732
 541.3	27735
 541.9	27803
 542.4	27821
 543.0	27903
 543.5	27877
 544.0	27870
 544.6	27905
 545.1	27924
 545.6	27948
 546.2	27927
 546.7	27845
 547.3	27897
 547.8	27862
 548.3	27896
 548.9	27798
 549.4	27795
 550.0	27753
 550.5	27810
 551.0	27837
 551.6	27785
 552.1	27787
 552.6	27793
 553.2	27743
 553.7	27730
 554.3	27762
 554.8	27841
 555.3	27710
 555.9	27782
 556.4	27775
 556.9	27891
 557.5	27933
 558.0	27922
 558.6	27927
 559.1	28013
 559.6	28029
 560.2	28067
 560.7	28101
 561.3	28103
 561.8	28117
 562.3	28260
 562.9	28275
 563.4	28335
 563.9	28353
 564.5	28383
 565.0	28399
 565.6	28434
 566.1	28447
 566.6	28460
 567.2	28464
 567.7	28569
 568.2	28516
 568.8	28529
 569.3	28524
 569.9	28587
 570.4	28575
 570.9	28573
 571.5	28576
 572.0	28583
 572.5	28651
 573.1	28619
 573.6	28691
 574.1	28697
 574.7	28725
 575.2	28720
 575.8	28785
 576.3	28890
 576.8	28883
 577.4	28929
 577.9	28979
 578.4	28993
 579.0	29040
 579.5	29174
 580.1	29134
 580.6	29201
 581.1	29320
 581.7	29375
 582.2	29362
 582.7	29431
 583.3	29509
 583.8	29517
 584.3	29511
 584.9	29589
 585.4	29633
 586.0	29641
 586.5	29695
 587.0	29705
 587.6	29789
 588.1	29773
 588.6	29848
 589.2	29811
 589.7	29841
 590.2	29843
 590.8	29826
 591.3	29839
 591.9	29788
 592.4	29827
 592.9	29746
 593.5	29720
 594.0	29688
 594.5	29675
 595.1	29615
 595.6	29555
 596.1	29578
 596.7	29512
 597.2	29517
 597.7	29427
 598.3	29412
 598.8	29362
 599.3	29327
 599.9	29269
 600.4	29236
 601.0	29213
 601.5	29193
 602.0	29158
 602.6	29111
 603.1	29123
 603.6	29139
 604.2	29217
 604.7	29151
 605.2	29225
 605.8	29155
 606.3	29203
 606.8	29283
 607.4	29301
 607.9	29369
 608.4	29345
 609.0	29412
 609.5	29478
 610.0	29491
 610.6	29608
 611.1	29579
 611.6	29660
 612.2	29701
 612.7	29799
 613.2	29845
 613.8	29839
 614.3	29925
 614.8	30019
 615.4	30028
 615.9	30178
 616.4	30290
 617.0	30306
 617.5	30438
 618.0	30531
 618.6	30561
 619.1	30665
 619.6	30802
 620.2	30907
 620.7	31047
 621.2	31103
 621.8	31208
 622.3	31298
 622.8	31343
 623.4	31423
 623.9	31533
 624.4	31561
 625.0	31587
 625.5	31602
 626.0	31631
 626.6	31696
 627.1	31671
 627.6	31626
 628.2	31594
 628.7	31635
 629.2	31603
 629.8	31609
 630.3	31582
 630.8	31539
 631.4	31475
 631.9	31453
 632.4	31302
 632.9	31259
 633.5	31214
 634.0	31124
 634.5	31119
 635.1	31015
 635.6	30962
 636.1	30885
 636.7	30851
 637.2	30805
 637.7	30669
 638.3	30718
 638.8	30661
 639.3	30643
 639.8	30543
 640.4	30528
 640.9	30522
 641.4	30416
 642.0	30369
 642.5	30365
 643.0	30324
 643.6	30392
 644.1	30339
 644.6	30354
 645.1	30366
 645.7	30367
 646.2	30323
 646.7	30351
 647.3	30383
 647.8	30408
 648.3	30383
 648.9	30453
 649.4	30392
 649.9	30477
 650.4	30516
 651.0	30597
 651.5	30635
 652.0	30713
 652.6	30702
 653.1	30813
 653.6	30774
 654.1	30865
 654.7	30871
 655.2	30989
 655.7	31055
 656.3	31109
 656.8	31103
 657.3	31185
 657.8	31179
 658.4	31222
 658.9	31274
 659.4	31367
 659.9	31391
 660.5	31389
 661.0	31449
 661.5	31514
 662.1	31493
 662.6	31527
 663.1	31508
 663.6	31588
 664.2	31551
 664.7	31537
 665.2	31487
 665.7	31586
 666.3	31552
 666.8	31543
 667.3	31543
 667.8	31513
 668.4	31519
 668.9	31521
 669.4	31481
 669.9	31490
 670.5	31418
 671.0	31420
 671.5	31369
 672.0	31391
 672.6	31379
 673.1	31401
 673.6	31295
 674.1	31303
 674.7	31281
 675.2	31309
 675.7	31173
 676.2	31146
 676.8	31199
 677.3	31184
 677.8	31103
 678.3	31183
 678.9	31099
 679.4	31025
 679.9	31073
 680.4	31053
 681.0	31014
 681.5	31023
 682.0	30967
 682.5	30992
 683.1	30891
 683.6	30913
 684.1	30850
 684.6	30929
 685.1	30870
 685.7	30878
 686.2	30855
 686.7	30814
 687.2	30793
 687.8	30843
 688.3	30790
 688.8	30807
 689.3	30751
 689.8	30779
 690.4	30767
 690.9	30780
 691.4	30810
 691.9	30802
 692.4	30787
 693.0	30843
 693.5	30820
 694.0	30806
 694.5	30798
 695.1	30789
 695.6	30755
 696.1	30819
 696.6	30807
 697.1	30827
 697.7	30858
 698.2	30787
 698.7	30815
 699.2	30774
 699.7	30782
 700.3	30737
 700.8	30712
 701.3	30787
 701.8	30744
 702.3	30686
 702.8	30676
 703.4	30664
 703.9	30629
 704.4	30589
 704.9	30548
 705.4	30539
 706.0	30578
 706.5	30545
 707.0	30447
 707.5	30419
 708.0	30421
 708.5	30352
 709.1	30389
 709.6	30342
 710.1	30278
 710.6	30241
 711.1	30205
 711.7	30207
 712.2	30171
 712.7	30173
 713.2	30126
 713.7	30117
 714.2	30061
 714.8	30125
 715.3	30068
 715.8	30060
 716.3	30054
 716.8	29981
 717.3	29966
 717.8	30053
 718.4	30065
 718.9	30011
 719.4	30088
 719.9	30004
 720.4	30047
 720.9	30066
 721.4	30061
 722.0	30088
 722.5	30087
 723.0	30086
 723.5	30105
 724.0	30082
 724.5	30067
 725.0	30114
 725.6	30062
 726.1	30122
 726.6	30224
 727.1	30175
 727.6	30211
 728.1	30241
 728.6	30205
 729.1	30199
 729.7	30189
 730.2	30222
 730.7	30245
 731.2	30277
 731.7	30265
 732.2	30283
 732.7	30247
 733.2	30295
 733.8	30268
 734.3	30308
 734.8	30297
 735.3	30329
 735.8	30333
 736.3	30330
 736.8	30383
 737.3	30443
 737.8	30399
 738.4	30406
 738.9	30384
 739.4	30466
 739.9	30454
 740.4	30485
 740.9	30456
 741.4	30460
 741.9	30452
 742.4	30467
 742.9	30452
 743.4	30507
 744.0	30413
 744.5	30396
 745.0	30392
 745.5	30444
 746.0	30399
 746.5	30403
 747.0	30335
 747.5	30298
 748.0	30269
 748.5	30273
 749.0	30253
 749.5	30313
 750.0	30146
 750.5	30159
 751.1	30135
 751.6	30114
 752.1	30067
 752.6	30007
 753.1	30026
 753.6	29938
 754.1	29882
 754.6	29886
 755.1	29813
 755.6	29781
 756.1	29680
 756.6	29722
 757.1	29669
 757.6	29615
 758.1	29543
 758.6	29507
 759.1	29405
 759.6	29403
 760.1	29310
 760.7	29243
 761.2	29278
 761.7	29205
 762.2	29151
 762.7	29146
 763.2	29009
 763.7	29034
 764.2	28932
 764.7	28893
 765.2	28871
 765.7	28794
 766.2	28719
 766.7	28715
 767.2	28613
 767.7	28573
 768.2	28511
 768.7	28445
 769.2	28383
 769.7	28391
 770.2	28332
 770.7	28305
 771.2	28245
 771.7	28205
 772.2	28190
 772.7	28200
 773.2	28148
 773.7	28077
 774.2	28007
 774.7	28018
 775.2	27981
 775.7	27947
 776.2	27912
 776.7	27920
 777.2	27838
 777.7	27877
 778.2	27836
 778.7	27870
 779.2	27851
 779.7	27858
 780.2	27701
 780.7	27757
 781.2	27735
 781.7	27781
 782.2	27709
 782.6	27751
 783.1	27734
 783.6	27700
 784.1	27649
 784.6	27631
 785.1	27643
 785.6	27627
 786.1	27639
 786.6	27643
 787.1	27583
 787.6	27557
 788.1	27530
 788.6	27510
 789.1	27479
 789.6	27486
 790.1	27485
 790.6	27468
 791.1	27359
 791.6	27345
 792.0	27323
 792.5	27337
 793.0	27287
 793.5	27249
 794.0	27163
 794.5	27218
 795.0	27155
 795.5	27116
 796.0	27085
 796.5	27003
 797.0	26982
 797.5	26986
 798.0	26812
 798.4	26795
 798.9	26746
 799.4	26713
 799.9	26671
 800.4	26506
 800.9	26555
 801.4	26545
 801.9	26454
 802.4	26343
 802.9	26343
 803.3	26287
 803.8	26206
 804.3	26123
 804.8	26123
 805.3	26032
 805.8	25947
 806.3	25895
 806.8	25832
 807.2	25771
 807.7	25698
 808.2	25668
 808.7	25555
 809.2	25510
 809.7	25398
 810.2	25417
 810.7	25309
 811.1	25271
 811.6	25216
 812.1	25138
 812.6	25054
 813.1	25052
 813.6	25031
 814.1	24977
 814.5	24895
 815.0	24874
 815.5	24787
 816.0	24712
 816.5	24732
 817.0	24651
 817.4	24600
 817.9	24590
 818.4	24496
 818.9	24533
 819.4	24467
 819.9	24417
 820.3	24355
 820.8	24327
 821.3	24297
 821.8	24264
 822.3	24197
 822.7	24151
 823.2	24181
 823.7	24116
 824.2	24097
 824.7	24047
 825.2	24040
 825.6	23988
 826.1	23962
 826.6	23993
 827.1	23953
 827.6	23926
 828.0	23851
 828.5	23806
 829.0	23824
 829.5	23750
 829.9	23737
 830.4	23772
 830.9	23733
 831.4	23745
 831.9	23687
 832.3	23739
 832.8	23671
 833.3	23662
 833.8	23713
 834.2	23690
 834.7	23536
 835.2	23609
 835.7	23597
 836.1	23575
 836.6	23538
 837.1	23535
 837.6	23530
 838.0	23547
 838.5	23551
 839.0	23542
 839.5	23526
 839.9	23445
 840.4	23431
 840.9	23390
 841.4	23409
 841.8	23419
 842.3	23417
 842.8	23429
 843.3	23402
 843.7	23297
 844.2	23277
 844.7	23343
 845.1	23303
 845.6	23217
 846.1	23223
 846.6	23251
 847.0	23141
 847.5	23172
 848.0	23137
 848.4	23155
 848.9	23106
 849.4	23064
 849.8	23069
 850.3	23055
 850.8	23081
 851.3	23021
 851.7	23002
 852.2	22990
 852.7	22965
 853.1	22931
 853.6	22854
 854.1	22877
 854.5	22829
 855.0	22795
 855.5	22766
 855.9	22804
 856.4	22777
 856.9	22677
 857.3	22706
 857.8	22645
 858.3	22652
 858.7	22585
 859.2	22597
 859.7	22592
 860.1	22637
 860.6	22595
 861.1	22514
 861.5	22538
 862.0	22519
 862.4	22471
 862.9	22418
 863.4	22447
 863.8	22429
 864.3	22405
 864.8	22311
 865.2	22339
 865.7	22344
 866.1	22335
 866.6	22242
 867.1	22292
 867.5	22255
 868.0	22221
 868.5	22148
 868.9	22130
 869.4	22205
 869.8	22145
 870.3	22081
 870.8	22128
 871.2	22061
 871.7	22033
 872.1	21959
 872.6	21985
 873.0	21940
 873.5	21995
 874.0	21971
 874.4	21855
 874.9	21887
 875.3	21843
 875.8	21758
 876.2	21555
 876.7	21393
 877.2	21033
 877.6	20567
 878.1	20068
