#xlabel Wavelength (nm)
#ylabel Spectrometer Array Counts
#title Exposure time is 9300 ms
## lambda	counts
 349.8	16867
 350.3	17147
 350.8	17393
 351.3	17584
 351.9	17678
 352.4	17782
 352.9	17855
 353.4	17813
 354.0	17810
 354.5	17840
 355.0	17853
 355.5	17863
 356.0	17825
 356.6	17797
 357.1	17842
 357.6	17826
 358.1	17861
 358.7	17808
 359.2	17824
 359.7	17844
 360.2	17878
 360.8	17844
 361.3	17948
 361.8	17896
 362.3	17924
 362.9	17895
 363.4	17971
 363.9	17973
 364.4	17995
 364.9	17919
 365.5	17991
 366.0	17975
 366.5	17936
 367.0	17985
 367.6	18007
 368.1	18013
 368.6	17959
 369.1	18012
 369.7	18067
 370.2	17996
 370.7	17999
 371.2	18053
 371.8	18102
 372.3	18039
 372.8	18114
 373.3	18135
 373.9	18087
 374.4	18106
 374.9	18162
 375.5	18061
 376.0	18191
 376.5	18162
 377.0	18191
 377.6	18143
 378.1	18225
 378.6	18172
 379.1	18187
 379.7	18179
 380.2	18258
 380.7	18266
 381.2	18232
 381.8	18229
 382.3	18275
 382.8	18265
 383.4	18309
 383.9	18275
 384.4	18425
 384.9	18343
 385.5	18366
 386.0	18369
 386.5	18446
 387.1	18389
 387.6	18406
 388.1	18419
 388.6	18441
 389.2	18442
 389.7	18477
 390.2	18467
 390.8	18559
 391.3	18545
 391.8	18556
 392.3	18564
 392.9	18569
 393.4	18581
 393.9	18665
 394.5	18686
 395.0	18645
 395.5	18681
 396.0	18694
 396.6	18673
 397.1	18771
 397.6	18777
 398.2	18787
 398.7	18791
 399.2	18889
 399.8	18771
 400.3	18840
 400.8	18886
 401.3	18875
 401.9	18893
 402.4	18921
 402.9	18917
 403.5	18958
 404.0	18961
 404.5	18924
 405.1	18947
 405.6	19059
 406.1	19045
 406.7	19075
 407.2	19099
 407.7	19194
 408.2	19203
 408.8	19228
 409.3	19271
 409.8	19338
 410.4	19315
 410.9	19343
 411.4	19310
 412.0	19384
 412.5	19443
 413.0	19414
 413.6	19469
 414.1	19450
 414.6	19493
 415.2	19543
 415.7	19504
 416.2	19565
 416.8	19561
 417.3	19567
 417.8	19597
 418.4	19699
 418.9	19656
 419.4	19797
 420.0	19707
 420.5	19784
 421.0	19740
 421.5	19831
 422.1	19827
 422.6	19888
 423.1	19922
 423.7	19909
 424.2	19907
 424.7	19948
 425.3	19940
 425.8	19973
 426.3	19975
 426.9	20052
 427.4	19999
 427.9	20122
 428.5	20087
 429.0	20142
 429.6	20122
 430.1	20229
 430.6	20252
 431.2	20232
 431.7	20349
 432.2	20358
 432.8	20372
 433.3	20505
 433.8	20541
 434.4	20551
 434.9	20593
 435.4	20675
 436.0	20679
 436.5	20705
 437.0	20797
 437.6	20792
 438.1	20857
 438.6	20877
 439.2	20916
 439.7	20918
 440.2	20866
 440.8	20899
 441.3	20905
 441.8	20913
 442.4	20885
 442.9	20914
 443.5	20953
 444.0	20950
 444.5	20977
 445.1	20909
 445.6	20958
 446.1	20994
 446.7	21029
 447.2	21073
 447.7	21083
 448.3	21182
 448.8	21181
 449.3	21257
 449.9	21246
 450.4	21391
 450.9	21475
 451.5	21521
 452.0	21551
 452.6	21619
 453.1	21723
 453.6	21774
 454.2	21721
 454.7	21837
 455.2	21894
 455.8	21968
 456.3	21953
 456.8	22091
 457.4	22049
 457.9	22081
 458.5	22137
 459.0	22113
 459.5	22162
 460.1	22127
 460.6	22173
 461.1	22166
 461.7	22215
 462.2	22171
 462.7	22209
 463.3	22145
 463.8	22217
 464.4	22290
 464.9	22251
 465.4	22332
 466.0	22259
 466.5	22347
 467.0	22310
 467.6	22400
 468.1	22511
 468.7	22472
 469.2	22443
 469.7	22570
 470.3	22590
 470.8	22657
 471.3	22677
 471.9	22681
 472.4	22761
 473.0	22835
 473.5	22887
 474.0	22910
 474.6	22954
 475.1	22983
 475.6	23082
 476.2	23121
 476.7	23124
 477.3	23207
 477.8	23184
 478.3	23144
 478.9	23353
 479.4	23278
 479.9	23327
 480.5	23343
 481.0	23398
 481.6	23458
 482.1	23549
 482.6	23563
 483.2	23619
 483.7	23749
 484.2	23729
 484.8	23626
 485.3	23747
 485.9	23842
 486.4	23836
 486.9	23904
 487.5	23890
 488.0	23927
 488.6	24013
 489.1	24059
 489.6	24123
 490.2	24141
 490.7	24137
 491.2	24109
 491.8	24189
 492.3	24153
 492.9	24210
 493.4	24227
 493.9	24247
 494.5	24250
 495.0	24305
 495.6	24230
 496.1	24238
 496.6	24289
 497.2	24207
 497.7	24174
 498.2	24247
 498.8	24259
 499.3	24188
 499.9	24253
 500.4	24258
 500.9	24263
 501.5	24279
 502.0	24381
 502.6	24393
 503.1	24511
 503.6	24524
 504.2	24529
 504.7	24591
 505.2	24711
 505.8	24761
 506.3	24900
 506.9	24988
 507.4	25029
 507.9	25076
 508.5	25191
 509.0	25309
 509.6	25447
 510.1	25488
 510.6	25590
 511.2	25679
 511.7	25739
 512.2	25856
 512.8	25933
 513.3	25953
 513.9	25985
 514.4	26071
 514.9	26178
 515.5	26103
 516.0	26177
 516.6	26147
 517.1	26191
 517.6	26159
 518.2	26123
 518.7	26042
 519.3	26061
 519.8	26061
 520.3	26021
 520.9	25956
 521.4	25928
 521.9	25952
 522.5	25845
 523.0	25826
 523.6	25844
 524.1	25695
 524.6	25737
 525.2	25752
 525.7	25795
 526.3	25741
 526.8	25842
 527.3	25813
 527.9	25866
 528.4	25884
 528.9	25975
 529.5	26028
 530.0	26071
 530.6	26168
 531.1	26227
 531.6	26209
 532.2	26387
 532.7	26428
 533.3	26533
 533.8	26721
 534.3	26835
 534.9	26905
 535.4	26948
 536.0	27088
 536.5	27196
 537.0	27237
 537.6	27327
 538.1	27433
 538.6	27523
 539.2	27523
 539.7	27601
 540.3	27737
 540.8	27739
 541.3	27748
 541.9	27815
 542.4	27829
 543.0	27915
 543.5	27887
 544.0	27877
 544.6	27909
 545.1	27933
 545.6	27953
 546.2	27938
 546.7	27848
 547.3	27911
 547.8	27869
 548.3	27901
 548.9	27806
 549.4	27805
 550.0	27762
 550.5	27812
 551.0	27838
 551.6	27791
 552.1	27799
 552.6	27801
 553.2	27757
 553.7	27741
 554.3	27770
 554.8	27842
 555.3	27721
 555.9	27795
 556.4	27781
 556.9	27896
 557.5	27942
 558.0	27927
 558.6	27935
 559.1	28015
 559.6	28043
 560.2	28078
 560.7	28111
 561.3	28115
 561.8	28124
 562.3	28269
 562.9	28280
 563.4	28351
 563.9	28359
 564.5	28397
 565.0	28404
 565.6	28441
 566.1	28460
 566.6	28471
 567.2	28478
 567.7	28578
 568.2	28527
 568.8	28540
 569.3	28531
 569.9	28599
 570.4	28591
 570.9	28577
 571.5	28581
 572.0	28597
 572.5	28657
 573.1	28627
 573.6	28706
 574.1	28703
 574.7	28735
 575.2	28727
 575.8	28794
 576.3	28899
 576.8	28895
 577.4	28937
 577.9	28987
 578.4	28994
 579.0	29055
 579.5	29185
 580.1	29144
 580.6	29208
 581.1	29324
 581.7	29385
 582.2	29373
 582.7	29444
 583.3	29520
 583.8	29527
 584.3	29517
 584.9	29604
 585.4	29637
 586.0	29647
 586.5	29711
 587.0	29715
 587.6	29801
 588.1	29784
 588.6	29857
 589.2	29821
 589.7	29853
 590.2	29855
 590.8	29832
 591.3	29858
 591.9	29798
 592.4	29839
 592.9	29759
 593.5	29725
 594.0	29690
 594.5	29690
 595.1	29628
 595.6	29563
 596.1	29585
 596.7	29529
 597.2	29525
 597.7	29439
 598.3	29424
 598.8	29371
 599.3	29339
 599.9	29282
 600.4	29244
 601.0	29229
 601.5	29207
 602.0	29172
 602.6	29128
 603.1	29136
 603.6	29146
 604.2	29225
 604.7	29158
 605.2	29228
 605.8	29161
 606.3	29214
 606.8	29294
 607.4	29315
 607.9	29377
 608.4	29357
 609.0	29424
 609.5	29497
 610.0	29506
 610.6	29626
 611.1	29595
 611.6	29675
 612.2	29726
 612.7	29815
 613.2	29861
 613.8	29845
 614.3	29942
 614.8	30024
 615.4	30038
 615.9	30190
 616.4	30304
 617.0	30317
 617.5	30449
 618.0	30545
 618.6	30574
 619.1	30687
 619.6	30815
 620.2	30921
 620.7	31069
 621.2	31110
 621.8	31217
 622.3	31321
 622.8	31357
 623.4	31446
 623.9	31551
 624.4	31573
 625.0	31602
 625.5	31619
 626.0	31646
 626.6	31707
 627.1	31691
 627.6	31644
 628.2	31613
 628.7	31653
 629.2	31627
 629.8	31626
 630.3	31593
 630.8	31559
 631.4	31490
 631.9	31467
 632.4	31319
 632.9	31270
 633.5	31224
 634.0	31141
 634.5	31135
 635.1	31027
 635.6	30973
 636.1	30901
 636.7	30873
 637.2	30825
 637.7	30677
 638.3	30729
 638.8	30673
 639.3	30647
 639.8	30552
 640.4	30542
 640.9	30527
 641.4	30429
 642.0	30375
 642.5	30365
 643.0	30330
 643.6	30406
 644.1	30348
 644.6	30363
 645.1	30375
 645.7	30375
 646.2	30333
 646.7	30362
 647.3	30391
 647.8	30416
 648.3	30400
 648.9	30461
 649.4	30406
 649.9	30488
 650.4	30522
 651.0	30601
 651.5	30641
 652.0	30717
 652.6	30706
 653.1	30817
 653.6	30784
 654.1	30865
 654.7	30871
 655.2	30991
 655.7	31055
 656.3	31103
 656.8	31109
 657.3	31196
 657.8	31179
 658.4	31225
 658.9	31269
 659.4	31365
 659.9	31394
 660.5	31393
 661.0	31445
 661.5	31507
 662.1	31494
 662.6	31522
 663.1	31498
 663.6	31591
 664.2	31554
 664.7	31535
 665.2	31479
 665.7	31581
 666.3	31543
 666.8	31534
 667.3	31534
 667.8	31506
 668.4	31515
 668.9	31514
 669.4	31469
 669.9	31485
 670.5	31409
 671.0	31411
 671.5	31365
 672.0	31382
 672.6	31364
 673.1	31387
 673.6	31290
 674.1	31296
 674.7	31268
 675.2	31295
 675.7	31167
 676.2	31138
 676.8	31184
 677.3	31170
 677.8	31091
 678.3	31168
 678.9	31087
 679.4	31013
 679.9	31061
 680.4	31039
 681.0	30999
 681.5	31006
 682.0	30954
 682.5	30977
 683.1	30889
 683.6	30897
 684.1	30835
 684.6	30912
 685.1	30859
 685.7	30860
 686.2	30833
 686.7	30791
 687.2	30780
 687.8	30834
 688.3	30772
 688.8	30788
 689.3	30734
 689.8	30766
 690.4	30749
 690.9	30771
 691.4	30794
 691.9	30779
 692.4	30773
 693.0	30832
 693.5	30804
 694.0	30790
 694.5	30785
 695.1	30773
 695.6	30739
 696.1	30803
 696.6	30791
 697.1	30814
 697.7	30839
 698.2	30769
 698.7	30798
 699.2	30761
 699.7	30762
 700.3	30712
 700.8	30690
 701.3	30762
 701.8	30725
 702.3	30661
 702.8	30655
 703.4	30639
 703.9	30611
 704.4	30569
 704.9	30531
 705.4	30513
 706.0	30560
 706.5	30530
 707.0	30431
 707.5	30398
 708.0	30397
 708.5	30332
 709.1	30371
 709.6	30321
 710.1	30256
 710.6	30218
 711.1	30185
 711.7	30181
 712.2	30148
 712.7	30142
 713.2	30101
 713.7	30092
 714.2	30037
 714.8	30107
 715.3	30042
 715.8	30038
 716.3	30029
 716.8	29962
 717.3	29950
 717.8	30027
 718.4	30047
 718.9	29986
 719.4	30063
 719.9	29984
 720.4	30023
 720.9	30046
 721.4	30037
 722.0	30067
 722.5	30061
 723.0	30067
 723.5	30083
 724.0	30055
 724.5	30051
 725.0	30095
 725.6	30037
 726.1	30100
 726.6	30200
 727.1	30149
 727.6	30191
 728.1	30219
 728.6	30177
 729.1	30177
 729.7	30170
 730.2	30193
 730.7	30223
 731.2	30254
 731.7	30237
 732.2	30258
 732.7	30228
 733.2	30268
 733.8	30244
 734.3	30279
 734.8	30271
 735.3	30309
 735.8	30314
 736.3	30315
 736.8	30363
 737.3	30422
 737.8	30375
 738.4	30391
 738.9	30356
 739.4	30441
 739.9	30430
 740.4	30453
 740.9	30433
 741.4	30436
 741.9	30427
 742.4	30443
 742.9	30424
 743.4	30483
 744.0	30394
 744.5	30378
 745.0	30372
 745.5	30423
 746.0	30383
 746.5	30384
 747.0	30315
 747.5	30283
 748.0	30246
 748.5	30251
 749.0	30237
 749.5	30291
 750.0	30120
 750.5	30143
 751.1	30113
 751.6	30094
 752.1	30044
 752.6	29989
 753.1	29999
 753.6	29917
 754.1	29860
 754.6	29867
 755.1	29791
 755.6	29765
 756.1	29656
 756.6	29704
 757.1	29647
 757.6	29594
 758.1	29523
 758.6	29484
 759.1	29386
 759.6	29378
 760.1	29292
 760.7	29218
 761.2	29257
 761.7	29189
 762.2	29134
 762.7	29131
 763.2	28983
 763.7	29011
 764.2	28909
 764.7	28872
 765.2	28857
 765.7	28775
 766.2	28706
 766.7	28689
 767.2	28598
 767.7	28556
 768.2	28497
 768.7	28429
 769.2	28373
 769.7	28379
 770.2	28319
 770.7	28298
 771.2	28230
 771.7	28192
 772.2	28170
 772.7	28180
 773.2	28131
 773.7	28068
 774.2	27991
 774.7	28008
 775.2	27969
 775.7	27929
 776.2	27890
 776.7	27907
 777.2	27819
 777.7	27865
 778.2	27824
 778.7	27859
 779.2	27841
 779.7	27849
 780.2	27690
 780.7	27739
 781.2	27729
 781.7	27771
 782.2	27689
 782.6	27738
 783.1	27726
 783.6	27687
 784.1	27638
 784.6	27623
 785.1	27623
 785.6	27610
 786.1	27624
 786.6	27623
 787.1	27564
 787.6	27549
 788.1	27520
 788.6	27505
 789.1	27475
 789.6	27475
 790.1	27479
 790.6	27457
 791.1	27349
 791.6	27325
 792.0	27309
 792.5	27318
 793.0	27272
 793.5	27238
 794.0	27153
 794.5	27205
 795.0	27139
 795.5	27107
 796.0	27071
 796.5	26988
 797.0	26970
 797.5	26975
 798.0	26797
 798.4	26792
 798.9	26736
 799.4	26703
 799.9	26665
 800.4	26501
 800.9	26542
 801.4	26539
 801.9	26449
 802.4	26331
 802.9	26335
 803.3	26285
 803.8	26199
 804.3	26113
 804.8	26108
 805.3	26019
 805.8	25942
 806.3	25891
 806.8	25823
 807.2	25762
 807.7	25692
 808.2	25663
 808.7	25552
 809.2	25502
 809.7	25391
 810.2	25407
 810.7	25301
 811.1	25266
 811.6	25213
 812.1	25135
 812.6	25051
 813.1	25049
 813.6	25022
 814.1	24971
 814.5	24889
 815.0	24869
 815.5	24775
 816.0	24713
 816.5	24729
 817.0	24649
 817.4	24601
 817.9	24593
 818.4	24495
 818.9	24536
 819.4	24461
 819.9	24409
 820.3	24359
 820.8	24325
 821.3	24297
 821.8	24267
 822.3	24198
 822.7	24151
 823.2	24184
 823.7	24111
 824.2	24093
 824.7	24047
 825.2	24033
 825.6	23991
 826.1	23959
 826.6	23988
 827.1	23949
 827.6	23932
 828.0	23852
 828.5	23805
 829.0	23821
 829.5	23750
 829.9	23742
 830.4	23769
 830.9	23736
 831.4	23742
 831.9	23685
 832.3	23743
 832.8	23675
 833.3	23656
 833.8	23713
 834.2	23689
 834.7	23539
 835.2	23605
 835.7	23598
 836.1	23574
 836.6	23541
 837.1	23537
 837.6	23535
 838.0	23545
 838.5	23551
 839.0	23544
 839.5	23526
 839.9	23437
 840.4	23431
 840.9	23392
 841.4	23415
 841.8	23418
 842.3	23419
 842.8	23426
 843.3	23410
 843.7	23300
 844.2	23276
 844.7	23343
 845.1	23307
 845.6	23224
 846.1	23228
 846.6	23252
 847.0	23144
 847.5	23168
 848.0	23140
 848.4	23163
 848.9	23108
 849.4	23072
 849.8	23069
 850.3	23057
 850.8	23086
 851.3	23030
 851.7	23006
 852.2	22984
 852.7	22969
 853.1	22930
 853.6	22860
 854.1	22884
 854.5	22833
 855.0	22803
 855.5	22774
 855.9	22809
 856.4	22778
 856.9	22677
 857.3	22709
 857.8	22649
 858.3	22656
 858.7	22586
 859.2	22598
 859.7	22595
 860.1	22639
 860.6	22596
 861.1	22521
 861.5	22538
 862.0	22522
 862.4	22475
 862.9	22416
 863.4	22449
 863.8	22438
 864.3	22407
 864.8	22315
 865.2	22341
 865.7	22337
 866.1	22343
 866.6	22244
 867.1	22295
 867.5	22259
 868.0	22225
 868.5	22154
 868.9	22135
 869.4	22212
 869.8	22151
 870.3	22087
 870.8	22139
 871.2	22078
 871.7	22051
 872.1	21979
 872.6	22005
 873.0	21965
 873.5	22029
 874.0	22005
 874.4	21883
 874.9	21915
 875.3	21867
 875.8	21777
 876.2	21571
 876.7	21394
 877.2	21021
 877.6	20554
 878.1	20061
