#xlabel Wavelength (nm)
#ylabel Spectrometer Array Counts
#title Exposure time is 9300 ms
## lambda	counts
 349.8	16653
 350.3	16890
 350.8	17107
 351.3	17290
 351.9	17380
 352.4	17494
 352.9	17570
 353.4	17544
 354.0	17553
 354.5	17603
 355.0	17617
 355.5	17638
 356.0	17604
 356.6	17574
 357.1	17619
 357.6	17599
 358.1	17628
 358.7	17568
 359.2	17585
 359.7	17598
 360.2	17624
 360.8	17594
 361.3	17683
 361.8	17623
 362.3	17647
 362.9	17611
 363.4	17678
 363.9	17678
 364.4	17697
 364.9	17611
 365.5	17683
 366.0	17662
 366.5	17616
 367.0	17659
 367.6	17677
 368.1	17672
 368.6	17612
 369.1	17666
 369.7	17712
 370.2	17634
 370.7	17631
 371.2	17671
 371.8	17718
 372.3	17644
 372.8	17713
 373.3	17726
 373.9	17671
 374.4	17681
 374.9	17723
 375.5	17629
 376.0	17737
 376.5	17702
 377.0	17720
 377.6	17658
 378.1	17729
 378.6	17668
 379.1	17671
 379.7	17653
 380.2	17716
 380.7	17717
 381.2	17672
 381.8	17659
 382.3	17700
 382.8	17675
 383.4	17715
 383.9	17670
 384.4	17805
 384.9	17721
 385.5	17735
 386.0	17737
 386.5	17804
 387.1	17733
 387.6	17749
 388.1	17749
 388.6	17757
 389.2	17747
 389.7	17769
 390.2	17740
 390.8	17822
 391.3	17788
 391.8	17781
 392.3	17762
 392.9	17756
 393.4	17741
 393.9	17809
 394.5	17809
 395.0	17747
 395.5	17767
 396.0	17767
 396.6	17727
 397.1	17816
 397.6	17807
 398.2	17809
 398.7	17809
 399.2	17894
 399.8	17770
 400.3	17829
 400.8	17872
 401.3	17849
 401.9	17857
 402.4	17871
 402.9	17850
 403.5	17875
 404.0	17861
 404.5	17814
 405.1	17817
 405.6	17904
 406.1	17868
 406.7	17875
 407.2	17871
 407.7	17951
 408.2	17941
 408.8	17936
 409.3	17963
 409.8	17996
 410.4	17959
 410.9	17955
 411.4	17908
 412.0	17962
 412.5	18001
 413.0	17955
 413.6	17992
 414.1	17954
 414.6	17980
 415.2	18013
 415.7	17953
 416.2	17995
 416.8	17975
 417.3	17956
 417.8	17973
 418.4	18055
 418.9	17994
 419.4	18117
 420.0	18003
 420.5	18059
 421.0	18008
 421.5	18077
 422.1	18056
 422.6	18107
 423.1	18119
 423.7	18096
 424.2	18079
 424.7	18110
 425.3	18077
 425.8	18099
 426.3	18084
 426.9	18143
 427.4	18077
 427.9	18179
 428.5	18117
 429.0	18155
 429.6	18112
 430.1	18181
 430.6	18173
 431.2	18112
 431.7	18200
 432.2	18159
 432.8	18136
 433.3	18232
 433.8	18232
 434.4	18199
 434.9	18203
 435.4	18242
 436.0	18223
 436.5	18211
 437.0	18282
 437.6	18252
 438.1	18299
 438.6	18299
 439.2	18328
 439.7	18311
 440.2	18265
 440.8	18286
 441.3	18285
 441.8	18282
 442.4	18250
 442.9	18285
 443.5	18315
 444.0	18305
 444.5	18326
 445.1	18249
 445.6	18283
 446.1	18295
 446.7	18307
 447.2	18325
 447.7	18311
 448.3	18369
 448.8	18329
 449.3	18358
 449.9	18303
 450.4	18393
 450.9	18423
 451.5	18422
 452.0	18385
 452.6	18410
 453.1	18445
 453.6	18453
 454.2	18351
 454.7	18414
 455.2	18424
 455.8	18467
 456.3	18409
 456.8	18531
 457.4	18453
 457.9	18460
 458.5	18507
 459.0	18462
 459.5	18500
 460.1	18451
 460.6	18497
 461.1	18481
 461.7	18522
 462.2	18479
 462.7	18517
 463.3	18443
 463.8	18519
 464.4	18573
 464.9	18523
 465.4	18578
 466.0	18480
 466.5	18551
 467.0	18484
 467.6	18553
 468.1	18634
 468.7	18557
 469.2	18490
 469.7	18575
 470.3	18561
 470.8	18586
 471.3	18566
 471.9	18521
 472.4	18569
 473.0	18606
 473.5	18619
 474.0	18609
 474.6	18613
 475.1	18605
 475.6	18668
 476.2	18678
 476.7	18651
 477.3	18710
 477.8	18647
 478.3	18582
 478.9	18767
 479.4	18659
 479.9	18669
 480.5	18655
 481.0	18674
 481.6	18698
 482.1	18747
 482.6	18729
 483.2	18733
 483.7	18841
 484.2	18777
 484.8	18616
 485.3	18716
 485.9	18785
 486.4	18743
 486.9	18761
 487.5	18724
 488.0	18730
 488.6	18784
 489.1	18787
 489.6	18844
 490.2	18831
 490.7	18788
 491.2	18762
 491.8	18812
 492.3	18770
 492.9	18808
 493.4	18829
 493.9	18837
 494.5	18843
 495.0	18906
 495.6	18828
 496.1	18833
 496.6	18893
 497.2	18814
 497.7	18772
 498.2	18863
 498.8	18879
 499.3	18793
 499.9	18854
 500.4	18849
 500.9	18833
 501.5	18818
 502.0	18886
 502.6	18863
 503.1	18941
 503.6	18904
 504.2	18861
 504.7	18867
 505.2	18929
 505.8	18926
 506.3	18984
 506.9	18993
 507.4	18963
 507.9	18939
 508.5	18965
 509.0	19012
 509.6	19061
 510.1	19037
 510.6	19071
 511.2	19093
 511.7	19073
 512.2	19136
 512.8	19151
 513.3	19114
 513.9	19113
 514.4	19163
 514.9	19224
 515.5	19135
 516.0	19205
 516.6	19181
 517.1	19225
 517.6	19207
 518.2	19187
 518.7	19130
 519.3	19175
 519.8	19223
 520.3	19219
 520.9	19167
 521.4	19178
 521.9	19228
 522.5	19152
 523.0	19178
 523.6	19211
 524.1	19067
 524.6	19123
 525.2	19141
 525.7	19173
 526.3	19093
 526.8	19186
 527.3	19133
 527.9	19155
 528.4	19139
 528.9	19195
 529.5	19215
 530.0	19196
 530.6	19239
 531.1	19241
 531.6	19162
 532.2	19275
 532.7	19235
 533.3	19271
 533.8	19388
 534.3	19414
 534.9	19415
 535.4	19360
 536.0	19431
 536.5	19472
 537.0	19433
 537.6	19457
 538.1	19494
 538.6	19523
 539.2	19467
 539.7	19483
 540.3	19579
 540.8	19540
 541.3	19503
 541.9	19535
 542.4	19538
 543.0	19594
 543.5	19559
 544.0	19535
 544.6	19579
 545.1	19587
 545.6	19620
 546.2	19606
 546.7	19523
 547.3	19578
 547.8	19555
 548.3	19602
 548.9	19525
 549.4	19527
 550.0	19496
 550.5	19559
 551.0	19597
 551.6	19544
 552.1	19569
 552.6	19561
 553.2	19543
 553.7	19519
 554.3	19555
 554.8	19626
 555.3	19486
 555.9	19549
 556.4	19511
 556.9	19603
 557.5	19627
 558.0	19579
 558.6	19559
 559.1	19632
 559.6	19615
 560.2	19611
 560.7	19615
 561.3	19590
 561.8	19561
 562.3	19677
 562.9	19664
 563.4	19690
 563.9	19681
 564.5	19690
 565.0	19674
 565.6	19690
 566.1	19688
 566.6	19689
 567.2	19678
 567.7	19782
 568.2	19692
 568.8	19699
 569.3	19670
 569.9	19743
 570.4	19733
 570.9	19704
 571.5	19697
 572.0	19693
 572.5	19741
 573.1	19695
 573.6	19735
 574.1	19728
 574.7	19731
 575.2	19696
 575.8	19726
 576.3	19803
 576.8	19772
 577.4	19773
 577.9	19794
 578.4	19750
 579.0	19768
 579.5	19854
 580.1	19785
 580.6	19787
 581.1	19866
 581.7	19879
 582.2	19817
 582.7	19862
 583.3	19905
 583.8	19870
 584.3	19826
 584.9	19879
 585.4	19886
 586.0	19854
 586.5	19897
 587.0	19855
 587.6	19919
 588.1	19875
 588.6	19945
 589.2	19892
 589.7	19903
 590.2	19883
 590.8	19889
 591.3	19907
 591.9	19858
 592.4	19917
 592.9	19855
 593.5	19849
 594.0	19843
 594.5	19853
 595.1	19837
 595.6	19818
 596.1	19869
 596.7	19837
 597.2	19875
 597.7	19812
 598.3	19822
 598.8	19793
 599.3	19803
 599.9	19792
 600.4	19781
 601.0	19787
 601.5	19775
 602.0	19759
 602.6	19715
 603.1	19727
 603.6	19727
 604.2	19822
 604.7	19731
 605.2	19799
 605.8	19720
 606.3	19743
 606.8	19807
 607.4	19783
 607.9	19817
 608.4	19770
 609.0	19801
 609.5	19839
 610.0	19813
 610.6	19905
 611.1	19825
 611.6	19840
 612.2	19845
 612.7	19905
 613.2	19891
 613.8	19821
 614.3	19857
 614.8	19909
 615.4	19835
 615.9	19919
 616.4	19970
 617.0	19922
 617.5	20011
 618.0	20019
 618.6	19943
 619.1	19979
 619.6	20052
 620.2	20044
 620.7	20099
 621.2	20059
 621.8	20101
 622.3	20123
 622.8	20085
 623.4	20114
 623.9	20169
 624.4	20147
 625.0	20140
 625.5	20147
 626.0	20156
 626.6	20197
 627.1	20194
 627.6	20149
 628.2	20115
 628.7	20142
 629.2	20130
 629.8	20160
 630.3	20168
 630.8	20153
 631.4	20130
 631.9	20163
 632.4	20059
 632.9	20069
 633.5	20071
 634.0	20033
 634.5	20117
 635.1	20045
 635.6	20023
 636.1	20009
 636.7	20059
 637.2	20046
 637.7	19962
 638.3	20052
 638.8	20051
 639.3	20058
 639.8	20015
 640.4	20030
 640.9	20052
 641.4	19963
 642.0	19951
 642.5	19975
 643.0	19947
 643.6	20023
 644.1	19984
 644.6	19994
 645.1	20034
 645.7	20005
 646.2	19975
 646.7	19988
 647.3	20018
 647.8	20015
 648.3	19999
 648.9	20033
 649.4	19951
 649.9	20017
 650.4	20021
 651.0	20061
 651.5	20076
 652.0	20119
 652.6	20067
 653.1	20145
 653.6	20059
 654.1	20137
 654.7	20082
 655.2	20158
 655.7	20197
 656.3	20207
 656.8	20149
 657.3	20206
 657.8	20154
 658.4	20148
 658.9	20149
 659.4	20233
 659.9	20225
 660.5	20201
 661.0	20242
 661.5	20283
 662.1	20240
 662.6	20251
 663.1	20214
 663.6	20292
 664.2	20257
 664.7	20225
 665.2	20151
 665.7	20267
 666.3	20239
 666.8	20240
 667.3	20245
 667.8	20204
 668.4	20237
 668.9	20243
 669.4	20223
 669.9	20260
 670.5	20199
 671.0	20213
 671.5	20166
 672.0	20228
 672.6	20236
 673.1	20259
 673.6	20173
 674.1	20205
 674.7	20199
 675.2	20245
 675.7	20103
 676.2	20123
 676.8	20174
 677.3	20195
 677.8	20122
 678.3	20235
 678.9	20164
 679.4	20119
 679.9	20173
 680.4	20188
 681.0	20155
 681.5	20186
 682.0	20161
 682.5	20187
 683.1	20104
 683.6	20147
 684.1	20097
 684.6	20190
 685.1	20135
 685.7	20158
 686.2	20122
 686.7	20097
 687.2	20086
 687.8	20154
 688.3	20087
 688.8	20123
 689.3	20071
 689.8	20093
 690.4	20090
 690.9	20101
 691.4	20097
 691.9	20127
 692.4	20077
 693.0	20143
 693.5	20122
 694.0	20102
 694.5	20092
 695.1	20079
 695.6	20045
 696.1	20108
 696.6	20093
 697.1	20111
 697.7	20135
 698.2	20073
 698.7	20095
 699.2	20054
 699.7	20059
 700.3	20043
 700.8	20025
 701.3	20135
 701.8	20092
 702.3	20038
 702.8	20048
 703.4	20015
 703.9	20033
 704.4	20028
 704.9	19995
 705.4	19999
 706.0	20095
 706.5	20087
 707.0	19999
 707.5	19992
 708.0	20021
 708.5	19979
 709.1	20041
 709.6	20015
 710.1	19983
 710.6	19956
 711.1	19965
 711.7	19988
 712.2	19993
 712.7	19994
 713.2	19979
 713.7	19985
 714.2	19947
 714.8	20019
 715.3	19970
 715.8	19977
 716.3	19983
 716.8	19903
 717.3	19890
 717.8	19998
 718.4	20010
 718.9	19950
 719.4	20016
 719.9	19941
 720.4	19983
 720.9	19988
 721.4	19983
 722.0	20002
 722.5	19987
 723.0	19980
 723.5	19988
 724.0	19947
 724.5	19945
 725.0	19965
 725.6	19902
 726.1	19948
 726.6	20056
 727.1	20002
 727.6	20034
 728.1	20050
 728.6	20011
 729.1	19999
 729.7	19987
 730.2	20010
 730.7	20045
 731.2	20073
 731.7	20061
 732.2	20065
 732.7	20043
 733.2	20089
 733.8	20062
 734.3	20084
 734.8	20055
 735.3	20072
 735.8	20053
 736.3	20033
 736.8	20060
 737.3	20095
 737.8	20049
 738.4	20051
 738.9	20006
 739.4	20085
 739.9	20071
 740.4	20068
 740.9	20067
 741.4	20058
 741.9	20051
 742.4	20068
 742.9	20055
 743.4	20136
 744.0	20057
 744.5	20051
 745.0	20071
 745.5	20143
 746.0	20116
 746.5	20124
 747.0	20075
 747.5	20057
 748.0	20028
 748.5	20044
 749.0	20061
 749.5	20148
 750.0	19987
 750.5	20047
 751.1	20061
 751.6	20055
 752.1	20045
 752.6	20020
 753.1	20049
 753.6	19991
 754.1	19960
 754.6	20007
 755.1	19967
 755.6	19979
 756.1	19909
 756.6	19999
 757.1	19965
 757.6	19952
 758.1	19926
 758.6	19938
 759.1	19871
 759.6	19907
 760.1	19856
 760.7	19833
 761.2	19906
 761.7	19848
 762.2	19833
 762.7	19891
 763.2	19753
 763.7	19841
 764.2	19774
 764.7	19782
 765.2	19812
 765.7	19788
 766.2	19748
 766.7	19789
 767.2	19747
 767.7	19761
 768.2	19741
 768.7	19709
 769.2	19698
 769.7	19749
 770.2	19722
 770.7	19719
 771.2	19705
 771.7	19676
 772.2	19691
 772.7	19739
 773.2	19719
 773.7	19672
 774.2	19622
 774.7	19674
 775.2	19669
 775.7	19647
 776.2	19637
 776.7	19662
 777.2	19599
 777.7	19663
 778.2	19651
 778.7	19692
 779.2	19697
 779.7	19728
 780.2	19579
 780.7	19643
 781.2	19655
 781.7	19718
 782.2	19644
 782.6	19713
 783.1	19719
 783.6	19683
 784.1	19656
 784.6	19644
 785.1	19659
 785.6	19647
 786.1	19681
 786.6	19699
 787.1	19643
 787.6	19645
 788.1	19634
 788.6	19629
 789.1	19627
 789.6	19665
 790.1	19674
 790.6	19679
 791.1	19584
 791.6	19595
 792.0	19618
 792.5	19654
 793.0	19635
 793.5	19630
 794.0	19566
 794.5	19652
 795.0	19642
 795.5	19614
 796.0	19629
 796.5	19579
 797.0	19608
 797.5	19649
 798.0	19509
 798.4	19562
 798.9	19541
 799.4	19555
 799.9	19559
 800.4	19439
 800.9	19535
 801.4	19600
 801.9	19558
 802.4	19499
 802.9	19558
 803.3	19549
 803.8	19520
 804.3	19475
 804.8	19536
 805.3	19489
 805.8	19480
 806.3	19490
 806.8	19462
 807.2	19451
 807.7	19432
 808.2	19463
 808.7	19392
 809.2	19399
 809.7	19339
 810.2	19399
 810.7	19344
 811.1	19361
 811.6	19359
 812.1	19324
 812.6	19284
 813.1	19334
 813.6	19346
 814.1	19327
 814.5	19289
 815.0	19306
 815.5	19275
 816.0	19231
 816.5	19293
 817.0	19246
 817.4	19229
 817.9	19268
 818.4	19206
 818.9	19277
 819.4	19238
 819.9	19219
 820.3	19187
 820.8	19197
 821.3	19191
 821.8	19197
 822.3	19162
 822.7	19143
 823.2	19197
 823.7	19155
 824.2	19159
 824.7	19134
 825.2	19154
 825.6	19134
 826.1	19130
 826.6	19178
 827.1	19164
 827.6	19159
 828.0	19108
 828.5	19073
 829.0	19113
 829.5	19060
 829.9	19069
 830.4	19121
 830.9	19103
 831.4	19127
 831.9	19090
 832.3	19170
 832.8	19119
 833.3	19105
 833.8	19193
 834.2	19176
 834.7	19031
 835.2	19122
 835.7	19130
 836.1	19113
 836.6	19097
 837.1	19104
 837.6	19122
 838.0	19148
 838.5	19173
 839.0	19174
 839.5	19166
 839.9	19090
 840.4	19090
 840.9	19060
 841.4	19103
 841.8	19114
 842.3	19130
 842.8	19157
 843.3	19147
 843.7	19061
 844.2	19041
 844.7	19133
 845.1	19108
 845.6	19028
 846.1	19048
 846.6	19084
 847.0	18987
 847.5	19033
 848.0	19018
 848.4	19059
 848.9	19033
 849.4	19015
 849.8	19033
 850.3	19024
 850.8	19080
 851.3	19041
 851.7	19041
 852.2	19044
 852.7	19037
 853.1	19011
 853.6	18968
 854.1	19011
 854.5	18982
 855.0	18969
 855.5	18962
 855.9	19019
 856.4	19022
 856.9	18923
 857.3	18979
 857.8	18957
 858.3	19003
 858.7	18957
 859.2	18967
 859.7	18965
 860.1	19019
 860.6	18995
 861.1	18939
 861.5	18983
 862.0	18995
 862.4	18960
 862.9	18923
 863.4	18975
 863.8	18978
 864.3	18976
 864.8	18893
 865.2	18946
 865.7	18974
 866.1	18981
 866.6	18905
 867.1	18981
 867.5	18963
 868.0	18948
 868.5	18899
 868.9	18916
 869.4	19009
 869.8	18961
 870.3	18920
 870.8	18989
 871.2	18939
 871.7	18929
 872.1	18871
 872.6	18928
 873.0	18898
 873.5	18968
 874.0	18955
 874.4	18834
 874.9	18859
 875.3	18821
 875.8	18732
 876.2	18547
 876.7	18423
 877.2	18133
 877.6	17771
 878.1	17427
