#xlabel Wavelength (nm)
#ylabel Spectrometer Array Counts
#title Exposure time is 9300 ms
## lambda	counts
 349.8	16670
 350.3	16918
 350.8	17159
 351.3	17340
 351.9	17444
 352.4	17555
 352.9	17638
 353.4	17607
 354.0	17612
 354.5	17656
 355.0	17662
 355.5	17676
 356.0	17630
 356.6	17599
 357.1	17642
 357.6	17617
 358.1	17643
 358.7	17580
 359.2	17599
 359.7	17613
 360.2	17640
 360.8	17607
 361.3	17701
 361.8	17639
 362.3	17668
 362.9	17626
 363.4	17697
 363.9	17699
 364.4	17719
 364.9	17631
 365.5	17701
 366.0	17679
 366.5	17637
 367.0	17679
 367.6	17699
 368.1	17695
 368.6	17633
 369.1	17685
 369.7	17732
 370.2	17655
 370.7	17647
 371.2	17697
 371.8	17739
 372.3	17662
 372.8	17730
 373.3	17745
 373.9	17690
 374.4	17697
 374.9	17745
 375.5	17643
 376.0	17762
 376.5	17718
 377.0	17738
 377.6	17688
 378.1	17751
 378.6	17692
 379.1	17691
 379.7	17676
 380.2	17737
 380.7	17737
 381.2	17691
 381.8	17681
 382.3	17713
 382.8	17695
 383.4	17734
 383.9	17692
 384.4	17832
 384.9	17746
 385.5	17758
 386.0	17757
 386.5	17826
 387.1	17754
 387.6	17770
 388.1	17768
 388.6	17776
 389.2	17765
 389.7	17787
 390.2	17757
 390.8	17842
 391.3	17802
 391.8	17796
 392.3	17783
 392.9	17776
 393.4	17761
 393.9	17830
 394.5	17826
 395.0	17765
 395.5	17788
 396.0	17782
 396.6	17751
 397.1	17831
 397.6	17830
 398.2	17827
 398.7	17827
 399.2	17911
 399.8	17789
 400.3	17847
 400.8	17891
 401.3	17865
 401.9	17875
 402.4	17889
 402.9	17875
 403.5	17900
 404.0	17879
 404.5	17837
 405.1	17830
 405.6	17923
 406.1	17882
 406.7	17897
 407.2	17893
 407.7	17969
 408.2	17960
 408.8	17953
 409.3	17981
 409.8	18016
 410.4	17979
 410.9	17972
 411.4	17929
 412.0	17981
 412.5	18022
 413.0	17974
 413.6	18009
 414.1	17971
 414.6	17998
 415.2	18035
 415.7	17971
 416.2	18014
 416.8	17995
 417.3	17974
 417.8	17995
 418.4	18075
 418.9	18010
 419.4	18135
 420.0	18023
 420.5	18079
 421.0	18023
 421.5	18096
 422.1	18074
 422.6	18126
 423.1	18139
 423.7	18113
 424.2	18098
 424.7	18129
 425.3	18100
 425.8	18111
 426.3	18103
 426.9	18157
 427.4	18096
 427.9	18196
 428.5	18135
 429.0	18173
 429.6	18126
 430.1	18199
 430.6	18187
 431.2	18128
 431.7	18215
 432.2	18179
 432.8	18159
 433.3	18249
 433.8	18250
 434.4	18213
 434.9	18232
 435.4	18264
 436.0	18237
 436.5	18237
 437.0	18300
 437.6	18268
 438.1	18316
 438.6	18318
 439.2	18343
 439.7	18331
 440.2	18278
 440.8	18299
 441.3	18308
 441.8	18304
 442.4	18267
 442.9	18300
 443.5	18335
 444.0	18319
 444.5	18343
 445.1	18261
 445.6	18297
 446.1	18312
 446.7	18324
 447.2	18343
 447.7	18329
 448.3	18384
 448.8	18346
 449.3	18371
 449.9	18318
 450.4	18405
 450.9	18443
 451.5	18437
 452.0	18402
 452.6	18424
 453.1	18463
 453.6	18467
 454.2	18363
 454.7	18428
 455.2	18443
 455.8	18483
 456.3	18428
 456.8	18545
 457.4	18469
 457.9	18479
 458.5	18521
 459.0	18480
 459.5	18519
 460.1	18469
 460.6	18515
 461.1	18500
 461.7	18542
 462.2	18501
 462.7	18533
 463.3	18467
 463.8	18533
 464.4	18591
 464.9	18539
 465.4	18597
 466.0	18497
 466.5	18562
 467.0	18502
 467.6	18562
 468.1	18645
 468.7	18571
 469.2	18507
 469.7	18591
 470.3	18575
 470.8	18604
 471.3	18583
 471.9	18539
 472.4	18581
 473.0	18622
 473.5	18633
 474.0	18623
 474.6	18629
 475.1	18619
 475.6	18685
 476.2	18697
 476.7	18671
 477.3	18725
 477.8	18662
 478.3	18597
 478.9	18783
 479.4	18676
 479.9	18688
 480.5	18667
 481.0	18687
 481.6	18709
 482.1	18765
 482.6	18748
 483.2	18754
 483.7	18859
 484.2	18787
 484.8	18640
 485.3	18733
 485.9	18799
 486.4	18758
 486.9	18781
 487.5	18743
 488.0	18744
 488.6	18799
 489.1	18806
 489.6	18856
 490.2	18853
 490.7	18811
 491.2	18781
 491.8	18828
 492.3	18788
 492.9	18827
 493.4	18841
 493.9	18851
 494.5	18854
 495.0	18919
 495.6	18838
 496.1	18848
 496.6	18910
 497.2	18829
 497.7	18783
 498.2	18875
 498.8	18895
 499.3	18807
 499.9	18868
 500.4	18861
 500.9	18843
 501.5	18837
 502.0	18898
 502.6	18877
 503.1	18951
 503.6	18923
 504.2	18871
 504.7	18878
 505.2	18941
 505.8	18939
 506.3	19001
 506.9	19009
 507.4	18976
 507.9	18947
 508.5	18985
 509.0	19021
 509.6	19078
 510.1	19052
 510.6	19089
 511.2	19106
 511.7	19087
 512.2	19151
 512.8	19170
 513.3	19134
 513.9	19126
 514.4	19177
 514.9	19247
 515.5	19146
 516.0	19228
 516.6	19197
 517.1	19242
 517.6	19223
 518.2	19207
 518.7	19144
 519.3	19193
 519.8	19231
 520.3	19230
 520.9	19179
 521.4	19181
 521.9	19239
 522.5	19163
 523.0	19190
 523.6	19223
 524.1	19080
 524.6	19131
 525.2	19150
 525.7	19187
 526.3	19107
 526.8	19195
 527.3	19146
 527.9	19170
 528.4	19154
 528.9	19210
 529.5	19227
 530.0	19207
 530.6	19248
 531.1	19253
 531.6	19175
 532.2	19289
 532.7	19245
 533.3	19280
 533.8	19399
 534.3	19430
 534.9	19427
 535.4	19375
 536.0	19446
 536.5	19489
 537.0	19444
 537.6	19471
 538.1	19517
 538.6	19542
 539.2	19481
 539.7	19495
 540.3	19597
 540.8	19554
 541.3	19521
 541.9	19555
 542.4	19549
 543.0	19610
 543.5	19569
 544.0	19547
 544.6	19595
 545.1	19603
 545.6	19640
 546.2	19621
 546.7	19540
 547.3	19594
 547.8	19567
 548.3	19615
 548.9	19538
 549.4	19540
 550.0	19507
 550.5	19569
 551.0	19611
 551.6	19560
 552.1	19576
 552.6	19577
 553.2	19557
 553.7	19531
 554.3	19565
 554.8	19632
 555.3	19497
 555.9	19556
 556.4	19518
 556.9	19606
 557.5	19640
 558.0	19595
 558.6	19573
 559.1	19641
 559.6	19625
 560.2	19624
 560.7	19623
 561.3	19601
 561.8	19577
 562.3	19690
 562.9	19675
 563.4	19701
 563.9	19695
 564.5	19701
 565.0	19681
 565.6	19703
 566.1	19703
 566.6	19703
 567.2	19692
 567.7	19799
 568.2	19705
 568.8	19717
 569.3	19685
 569.9	19757
 570.4	19747
 570.9	19716
 571.5	19709
 572.0	19704
 572.5	19755
 573.1	19703
 573.6	19747
 574.1	19741
 574.7	19741
 575.2	19713
 575.8	19746
 576.3	19815
 576.8	19778
 577.4	19790
 577.9	19807
 578.4	19763
 579.0	19782
 579.5	19870
 580.1	19795
 580.6	19805
 581.1	19882
 581.7	19891
 582.2	19829
 582.7	19877
 583.3	19921
 583.8	19887
 584.3	19838
 584.9	19894
 585.4	19903
 586.0	19873
 586.5	19907
 587.0	19867
 587.6	19937
 588.1	19888
 588.6	19959
 589.2	19903
 589.7	19913
 590.2	19903
 590.8	19900
 591.3	19926
 591.9	19877
 592.4	19930
 592.9	19875
 593.5	19865
 594.0	19854
 594.5	19869
 595.1	19851
 595.6	19829
 596.1	19885
 596.7	19849
 597.2	19883
 597.7	19826
 598.3	19834
 598.8	19805
 599.3	19819
 599.9	19805
 600.4	19788
 601.0	19797
 601.5	19786
 602.0	19771
 602.6	19723
 603.1	19743
 603.6	19740
 604.2	19834
 604.7	19749
 605.2	19809
 605.8	19730
 606.3	19755
 606.8	19820
 607.4	19791
 607.9	19828
 608.4	19783
 609.0	19811
 609.5	19855
 610.0	19823
 610.6	19915
 611.1	19835
 611.6	19851
 612.2	19856
 612.7	19915
 613.2	19900
 613.8	19838
 614.3	19868
 614.8	19915
 615.4	19846
 615.9	19927
 616.4	19979
 617.0	19933
 617.5	20019
 618.0	20028
 618.6	19954
 619.1	19989
 619.6	20066
 620.2	20054
 620.7	20110
 621.2	20073
 621.8	20112
 622.3	20137
 622.8	20096
 623.4	20130
 623.9	20185
 624.4	20159
 625.0	20154
 625.5	20167
 626.0	20171
 626.6	20212
 627.1	20204
 627.6	20153
 628.2	20128
 628.7	20163
 629.2	20138
 629.8	20170
 630.3	20181
 630.8	20163
 631.4	20143
 631.9	20177
 632.4	20064
 632.9	20085
 633.5	20085
 634.0	20047
 634.5	20127
 635.1	20055
 635.6	20033
 636.1	20017
 636.7	20075
 637.2	20063
 637.7	19977
 638.3	20067
 638.8	20067
 639.3	20066
 639.8	20026
 640.4	20045
 640.9	20065
 641.4	19975
 642.0	19966
 642.5	19989
 643.0	19960
 643.6	20035
 644.1	19998
 644.6	20004
 645.1	20045
 645.7	20018
 646.2	19986
 646.7	20000
 647.3	20032
 647.8	20030
 648.3	20011
 648.9	20043
 649.4	19967
 649.9	20034
 650.4	20036
 651.0	20074
 651.5	20085
 652.0	20138
 652.6	20083
 653.1	20154
 653.6	20074
 654.1	20149
 654.7	20093
 655.2	20175
 655.7	20207
 656.3	20223
 656.8	20159
 657.3	20217
 657.8	20169
 658.4	20158
 658.9	20165
 659.4	20249
 659.9	20239
 660.5	20211
 661.0	20252
 661.5	20299
 662.1	20254
 662.6	20267
 663.1	20227
 663.6	20299
 664.2	20267
 664.7	20235
 665.2	20162
 665.7	20279
 666.3	20253
 666.8	20260
 667.3	20257
 667.8	20226
 668.4	20253
 668.9	20258
 669.4	20239
 669.9	20268
 670.5	20212
 671.0	20227
 671.5	20179
 672.0	20240
 672.6	20247
 673.1	20265
 673.6	20184
 674.1	20223
 674.7	20209
 675.2	20258
 675.7	20118
 676.2	20141
 676.8	20186
 677.3	20209
 677.8	20141
 678.3	20245
 678.9	20179
 679.4	20134
 679.9	20185
 680.4	20198
 681.0	20164
 681.5	20196
 682.0	20176
 682.5	20199
 683.1	20117
 683.6	20170
 684.1	20114
 684.6	20205
 685.1	20143
 685.7	20169
 686.2	20132
 686.7	20110
 687.2	20097
 687.8	20165
 688.3	20106
 688.8	20138
 689.3	20083
 689.8	20109
 690.4	20111
 690.9	20114
 691.4	20111
 691.9	20137
 692.4	20091
 693.0	20158
 693.5	20133
 694.0	20112
 694.5	20109
 695.1	20089
 695.6	20058
 696.1	20124
 696.6	20107
 697.1	20123
 697.7	20150
 698.2	20081
 698.7	20111
 699.2	20077
 699.7	20077
 700.3	20057
 700.8	20039
 701.3	20151
 701.8	20105
 702.3	20051
 702.8	20063
 703.4	20029
 703.9	20043
 704.4	20041
 704.9	20009
 705.4	20014
 706.0	20111
 706.5	20101
 707.0	20018
 707.5	20001
 708.0	20041
 708.5	19989
 709.1	20053
 709.6	20023
 710.1	19998
 710.6	19973
 711.1	19982
 711.7	19999
 712.2	20010
 712.7	20007
 713.2	19992
 713.7	19996
 714.2	19957
 714.8	20032
 715.3	19988
 715.8	19999
 716.3	19997
 716.8	19918
 717.3	19906
 717.8	20011
 718.4	20020
 718.9	19966
 719.4	20038
 719.9	19954
 720.4	19997
 720.9	19999
 721.4	19993
 722.0	20018
 722.5	20005
 723.0	19991
 723.5	20000
 724.0	19965
 724.5	19961
 725.0	19978
 725.6	19916
 726.1	19962
 726.6	20074
 727.1	20014
 727.6	20046
 728.1	20067
 728.6	20026
 729.1	20009
 729.7	20004
 730.2	20029
 730.7	20057
 731.2	20087
 731.7	20076
 732.2	20079
 732.7	20057
 733.2	20100
 733.8	20075
 734.3	20098
 734.8	20069
 735.3	20087
 735.8	20069
 736.3	20049
 736.8	20077
 737.3	20111
 737.8	20058
 738.4	20061
 738.9	20018
 739.4	20098
 739.9	20083
 740.4	20081
 740.9	20077
 741.4	20075
 741.9	20069
 742.4	20087
 742.9	20071
 743.4	20148
 744.0	20075
 744.5	20071
 745.0	20086
 745.5	20156
 746.0	20133
 746.5	20136
 747.0	20086
 747.5	20074
 748.0	20050
 748.5	20061
 749.0	20082
 749.5	20160
 750.0	20006
 750.5	20067
 751.1	20077
 751.6	20075
 752.1	20065
 752.6	20037
 753.1	20067
 753.6	20009
 754.1	19977
 754.6	20028
 755.1	19983
 755.6	19992
 756.1	19920
 756.6	20010
 757.1	19981
 757.6	19968
 758.1	19941
 758.6	19954
 759.1	19886
 759.6	19922
 760.1	19873
 760.7	19851
 761.2	19919
 761.7	19862
 762.2	19849
 762.7	19901
 763.2	19771
 763.7	19852
 764.2	19792
 764.7	19798
 765.2	19827
 765.7	19803
 766.2	19758
 766.7	19805
 767.2	19763
 767.7	19771
 768.2	19752
 768.7	19725
 769.2	19723
 769.7	19759
 770.2	19731
 770.7	19735
 771.2	19722
 771.7	19698
 772.2	19710
 772.7	19752
 773.2	19733
 773.7	19691
 774.2	19631
 774.7	19689
 775.2	19689
 775.7	19661
 776.2	19655
 776.7	19677
 777.2	19609
 777.7	19679
 778.2	19665
 778.7	19704
 779.2	19715
 779.7	19741
 780.2	19595
 780.7	19661
 781.2	19667
 781.7	19734
 782.2	19658
 782.6	19730
 783.1	19733
 783.6	19702
 784.1	19671
 784.6	19663
 785.1	19674
 785.6	19661
 786.1	19696
 786.6	19714
 787.1	19663
 787.6	19657
 788.1	19656
 788.6	19651
 789.1	19647
 789.6	19683
 790.1	19694
 790.6	19693
 791.1	19601
 791.6	19610
 792.0	19635
 792.5	19673
 793.0	19652
 793.5	19652
 794.0	19578
 794.5	19669
 795.0	19663
 795.5	19631
 796.0	19647
 796.5	19599
 797.0	19626
 797.5	19663
 798.0	19525
 798.4	19572
 798.9	19559
 799.4	19576
 799.9	19583
 800.4	19459
 800.9	19555
 801.4	19618
 801.9	19575
 802.4	19517
 802.9	19579
 803.3	19572
 803.8	19540
 804.3	19492
 804.8	19558
 805.3	19507
 805.8	19496
 806.3	19502
 806.8	19484
 807.2	19472
 807.7	19450
 808.2	19483
 808.7	19409
 809.2	19412
 809.7	19353
 810.2	19417
 810.7	19367
 811.1	19375
 811.6	19375
 812.1	19341
 812.6	19299
 813.1	19349
 813.6	19365
 814.1	19341
 814.5	19305
 815.0	19319
 815.5	19288
 816.0	19247
 816.5	19317
 817.0	19265
 817.4	19249
 817.9	19284
 818.4	19225
 818.9	19292
 819.4	19252
 819.9	19238
 820.3	19211
 820.8	19211
 821.3	19207
 821.8	19217
 822.3	19179
 822.7	19165
 823.2	19216
 823.7	19173
 824.2	19171
 824.7	19153
 825.2	19174
 825.6	19153
 826.1	19143
 826.6	19191
 827.1	19187
 827.6	19183
 828.0	19121
 828.5	19094
 829.0	19130
 829.5	19077
 829.9	19091
 830.4	19138
 830.9	19124
 831.4	19149
 831.9	19111
 832.3	19187
 832.8	19132
 833.3	19127
 833.8	19210
 834.2	19192
 834.7	19051
 835.2	19137
 835.7	19145
 836.1	19136
 836.6	19119
 837.1	19130
 837.6	19140
 838.0	19169
 838.5	19187
 839.0	19195
 839.5	19183
 839.9	19108
 840.4	19112
 840.9	19082
 841.4	19123
 841.8	19137
 842.3	19155
 842.8	19177
 843.3	19174
 843.7	19076
 844.2	19064
 844.7	19153
 845.1	19123
 845.6	19049
 846.1	19067
 846.6	19105
 847.0	19007
 847.5	19053
 848.0	19041
 848.4	19079
 848.9	19054
 849.4	19036
 849.8	19052
 850.3	19048
 850.8	19097
 851.3	19055
 851.7	19055
 852.2	19067
 852.7	19054
 853.1	19036
 853.6	18987
 854.1	19029
 854.5	19001
 855.0	18987
 855.5	18979
 855.9	19042
 856.4	19036
 856.9	18947
 857.3	18998
 857.8	18978
 858.3	19018
 858.7	18973
 859.2	18986
 859.7	18990
 860.1	19040
 860.6	19015
 861.1	18962
 861.5	19005
 862.0	19015
 862.4	18983
 862.9	18949
 863.4	18998
 863.8	18999
 864.3	18992
 864.8	18911
 865.2	18967
 865.7	18987
 866.1	18998
 866.6	18929
 867.1	18999
 867.5	18977
 868.0	18960
 868.5	18913
 868.9	18922
 869.4	19020
 869.8	18973
 870.3	18933
 870.8	18997
 871.2	18960
 871.7	18953
 872.1	18905
 872.6	18958
 873.0	18941
 873.5	19024
 874.0	19013
 874.4	18907
 874.9	18941
 875.3	18904
 875.8	18817
 876.2	18631
 876.7	18491
 877.2	18181
 877.6	17797
 878.1	17430
