#xlabel Wavelength (nm)
#ylabel Spectrometer Array Counts
#title Exposure time is 9300 ms
## lambda	counts
 349.8	16735
 350.3	16990
 350.8	17229
 351.3	17421
 351.9	17520
 352.4	17627
 352.9	17710
 353.4	17672
 354.0	17675
 354.5	17713
 355.0	17723
 355.5	17730
 356.0	17694
 356.6	17662
 357.1	17699
 357.6	17682
 358.1	17711
 358.7	17652
 359.2	17670
 359.7	17682
 360.2	17716
 360.8	17685
 361.3	17772
 361.8	17722
 362.3	17749
 362.9	17710
 363.4	17782
 363.9	17783
 364.4	17806
 364.9	17728
 365.5	17797
 366.0	17776
 366.5	17738
 367.0	17784
 367.6	17800
 368.1	17809
 368.6	17747
 369.1	17802
 369.7	17849
 370.2	17777
 370.7	17776
 371.2	17828
 371.8	17874
 372.3	17803
 372.8	17872
 373.3	17890
 373.9	17842
 374.4	17855
 374.9	17907
 375.5	17810
 376.0	17928
 376.5	17897
 377.0	17926
 377.6	17869
 378.1	17945
 378.6	17895
 379.1	17903
 379.7	17891
 380.2	17962
 380.7	17969
 381.2	17933
 381.8	17927
 382.3	17969
 382.8	17959
 383.4	17999
 383.9	17959
 384.4	18110
 384.9	18029
 385.5	18054
 386.0	18058
 386.5	18135
 387.1	18076
 387.6	18095
 388.1	18109
 388.6	18135
 389.2	18123
 389.7	18162
 390.2	18148
 390.8	18244
 391.3	18224
 391.8	18228
 392.3	18231
 392.9	18239
 393.4	18243
 393.9	18330
 394.5	18343
 395.0	18297
 395.5	18323
 396.0	18338
 396.6	18319
 397.1	18418
 397.6	18419
 398.2	18428
 398.7	18436
 399.2	18527
 399.8	18414
 400.3	18482
 400.8	18531
 401.3	18514
 401.9	18530
 402.4	18555
 402.9	18552
 403.5	18589
 404.0	18587
 404.5	18550
 405.1	18568
 405.6	18673
 406.1	18657
 406.7	18683
 407.2	18700
 407.7	18791
 408.2	18801
 408.8	18820
 409.3	18865
 409.8	18927
 410.4	18901
 410.9	18921
 411.4	18894
 412.0	18967
 412.5	19029
 413.0	18998
 413.6	19053
 414.1	19033
 414.6	19077
 415.2	19136
 415.7	19092
 416.2	19155
 416.8	19152
 417.3	19155
 417.8	19191
 418.4	19291
 418.9	19243
 419.4	19383
 420.0	19291
 420.5	19369
 421.0	19326
 421.5	19421
 422.1	19407
 422.6	19475
 423.1	19504
 423.7	19493
 424.2	19485
 424.7	19533
 425.3	19515
 425.8	19546
 426.3	19545
 426.9	19617
 427.4	19565
 427.9	19682
 428.5	19643
 429.0	19694
 429.6	19674
 430.1	19770
 430.6	19787
 431.2	19761
 431.7	19872
 432.2	19868
 432.8	19874
 433.3	20001
 433.8	20029
 434.4	20029
 434.9	20068
 435.4	20140
 436.0	20138
 436.5	20155
 437.0	20242
 437.6	20227
 438.1	20290
 438.6	20305
 439.2	20343
 439.7	20340
 440.2	20296
 440.8	20323
 441.3	20329
 441.8	20330
 442.4	20302
 442.9	20331
 443.5	20369
 444.0	20362
 444.5	20389
 445.1	20319
 445.6	20370
 446.1	20395
 446.7	20421
 447.2	20458
 447.7	20468
 448.3	20554
 448.8	20546
 449.3	20611
 449.9	20591
 450.4	20729
 450.9	20794
 451.5	20835
 452.0	20844
 452.6	20905
 453.1	20991
 453.6	21030
 454.2	20969
 454.7	21069
 455.2	21121
 455.8	21187
 456.3	21160
 456.8	21299
 457.4	21250
 457.9	21273
 458.5	21326
 459.0	21296
 459.5	21337
 460.1	21301
 460.6	21348
 461.1	21337
 461.7	21380
 462.2	21337
 462.7	21375
 463.3	21313
 463.8	21387
 464.4	21451
 464.9	21404
 465.4	21481
 466.0	21398
 466.5	21485
 467.0	21445
 467.6	21525
 468.1	21632
 468.7	21585
 469.2	21545
 469.7	21663
 470.3	21677
 470.8	21730
 471.3	21743
 471.9	21729
 472.4	21803
 473.0	21870
 473.5	21909
 474.0	21930
 474.6	21960
 475.1	21977
 475.6	22073
 476.2	22102
 476.7	22103
 477.3	22174
 477.8	22140
 478.3	22095
 478.9	22302
 479.4	22219
 479.9	22257
 480.5	22263
 481.0	22311
 481.6	22358
 482.1	22444
 482.6	22450
 483.2	22487
 483.7	22619
 484.2	22586
 484.8	22467
 485.3	22579
 485.9	22669
 486.4	22656
 486.9	22703
 487.5	22686
 488.0	22723
 488.6	22801
 489.1	22827
 489.6	22897
 490.2	22900
 490.7	22888
 491.2	22865
 491.8	22936
 492.3	22896
 492.9	22950
 493.4	22961
 493.9	22980
 494.5	22985
 495.0	23043
 495.6	22961
 496.1	22968
 496.6	23019
 497.2	22940
 497.7	22902
 498.2	22978
 498.8	22994
 499.3	22916
 499.9	22981
 500.4	22980
 500.9	22978
 501.5	22983
 502.0	23081
 502.6	23084
 503.1	23190
 503.6	23191
 504.2	23186
 504.7	23235
 505.2	23331
 505.8	23369
 506.3	23497
 506.9	23561
 507.4	23587
 507.9	23618
 508.5	23703
 509.0	23808
 509.6	23923
 510.1	23945
 510.6	24033
 511.2	24107
 511.7	24143
 512.2	24247
 512.8	24312
 513.3	24317
 513.9	24340
 514.4	24424
 514.9	24509
 515.5	24427
 516.0	24505
 516.6	24472
 517.1	24518
 517.6	24479
 518.2	24452
 518.7	24375
 519.3	24402
 519.8	24406
 520.3	24382
 520.9	24316
 521.4	24290
 521.9	24322
 522.5	24221
 523.0	24217
 523.6	24231
 524.1	24087
 524.6	24125
 525.2	24137
 525.7	24184
 526.3	24123
 526.8	24220
 527.3	24183
 527.9	24228
 528.4	24235
 528.9	24321
 529.5	24360
 530.0	24391
 530.6	24467
 531.1	24521
 531.6	24484
 532.2	24639
 532.7	24659
 533.3	24751
 533.8	24921
 534.3	25012
 534.9	25067
 535.4	25078
 536.0	25203
 536.5	25291
 537.0	25319
 537.6	25391
 538.1	25486
 538.6	25553
 539.2	25537
 539.7	25598
 540.3	25728
 540.8	25714
 541.3	25703
 541.9	25762
 542.4	25780
 543.0	25854
 543.5	25823
 544.0	25799
 544.6	25841
 545.1	25857
 545.6	25883
 546.2	25866
 546.7	25777
 547.3	25833
 547.8	25800
 548.3	25835
 548.9	25745
 549.4	25730
 550.0	25697
 550.5	25757
 551.0	25785
 551.6	25727
 552.1	25736
 552.6	25730
 553.2	25695
 553.7	25675
 554.3	25717
 554.8	25780
 555.3	25652
 555.9	25719
 556.4	25701
 556.9	25809
 557.5	25853
 558.0	25827
 558.6	25826
 559.1	25898
 559.6	25913
 560.2	25942
 560.7	25964
 561.3	25955
 561.8	25960
 562.3	26093
 562.9	26101
 563.4	26157
 563.9	26161
 564.5	26197
 565.0	26191
 565.6	26227
 566.1	26235
 566.6	26247
 567.2	26243
 567.7	26341
 568.2	26278
 568.8	26287
 569.3	26275
 569.9	26341
 570.4	26331
 570.9	26311
 571.5	26315
 572.0	26320
 572.5	26380
 573.1	26339
 573.6	26403
 574.1	26409
 574.7	26423
 575.2	26413
 575.8	26472
 576.3	26569
 576.8	26551
 577.4	26587
 577.9	26623
 578.4	26615
 579.0	26660
 579.5	26785
 580.1	26734
 580.6	26781
 581.1	26887
 581.7	26935
 582.2	26907
 582.7	26971
 583.3	27036
 583.8	27039
 584.3	27013
 584.9	27089
 585.4	27119
 586.0	27109
 586.5	27166
 587.0	27159
 587.6	27248
 588.1	27211
 588.6	27284
 589.2	27243
 589.7	27265
 590.2	27268
 590.8	27244
 591.3	27272
 591.9	27213
 592.4	27254
 592.9	27179
 593.5	27149
 594.0	27124
 594.5	27120
 595.1	27065
 595.6	27015
 596.1	27049
 596.7	26990
 597.2	26991
 597.7	26914
 598.3	26904
 598.8	26859
 599.3	26833
 599.9	26787
 600.4	26760
 601.0	26747
 601.5	26721
 602.0	26696
 602.6	26645
 603.1	26661
 603.6	26663
 604.2	26745
 604.7	26673
 605.2	26741
 605.8	26672
 606.3	26707
 606.8	26784
 607.4	26790
 607.9	26846
 608.4	26816
 609.0	26872
 609.5	26935
 610.0	26931
 610.6	27047
 611.1	27001
 611.6	27062
 612.2	27091
 612.7	27174
 613.2	27202
 613.8	27179
 614.3	27249
 614.8	27327
 615.4	27313
 615.9	27441
 616.4	27544
 617.0	27541
 617.5	27658
 618.0	27730
 618.6	27725
 619.1	27814
 619.6	27935
 620.2	28001
 620.7	28123
 621.2	28147
 621.8	28235
 622.3	28313
 622.8	28325
 623.4	28398
 623.9	28489
 624.4	28494
 625.0	28519
 625.5	28532
 626.0	28550
 626.6	28610
 627.1	28585
 627.6	28535
 628.2	28500
 628.7	28535
 629.2	28514
 629.8	28521
 630.3	28502
 630.8	28465
 631.4	28409
 631.9	28395
 632.4	28255
 632.9	28229
 633.5	28191
 634.0	28116
 634.5	28139
 635.1	28041
 635.6	27989
 636.1	27932
 636.7	27923
 637.2	27881
 637.7	27747
 638.3	27814
 638.8	27771
 639.3	27757
 639.8	27668
 640.4	27663
 640.9	27660
 641.4	27559
 642.0	27514
 642.5	27519
 643.0	27487
 643.6	27553
 644.1	27506
 644.6	27516
 645.1	27535
 645.7	27528
 646.2	27481
 646.7	27505
 647.3	27535
 647.8	27555
 648.3	27535
 648.9	27591
 649.4	27520
 649.9	27603
 650.4	27631
 651.0	27690
 651.5	27722
 652.0	27788
 652.6	27766
 653.1	27864
 653.6	27812
 654.1	27898
 654.7	27883
 655.2	27996
 655.7	28056
 656.3	28085
 656.8	28063
 657.3	28148
 657.8	28121
 658.4	28141
 658.9	28186
 659.4	28269
 659.9	28289
 660.5	28273
 661.0	28335
 661.5	28383
 662.1	28365
 662.6	28380
 663.1	28357
 663.6	28443
 664.2	28401
 664.7	28377
 665.2	28315
 665.7	28423
 666.3	28387
 666.8	28377
 667.3	28377
 667.8	28343
 668.4	28359
 668.9	28354
 669.4	28321
 669.9	28333
 670.5	28263
 671.0	28271
 671.5	28217
 672.0	28251
 672.6	28236
 673.1	28254
 673.6	28160
 674.1	28171
 674.7	28150
 675.2	28176
 675.7	28048
 676.2	28033
 676.8	28081
 677.3	28073
 677.8	27989
 678.3	28077
 678.9	28001
 679.4	27935
 679.9	27981
 680.4	27966
 681.0	27923
 681.5	27946
 682.0	27895
 682.5	27917
 683.1	27818
 683.6	27839
 684.1	27774
 684.6	27859
 685.1	27801
 685.7	27815
 686.2	27781
 686.7	27751
 687.2	27728
 687.8	27789
 688.3	27721
 688.8	27746
 689.3	27691
 689.8	27712
 690.4	27695
 690.9	27705
 691.4	27727
 691.9	27725
 692.4	27701
 693.0	27767
 693.5	27731
 694.0	27717
 694.5	27711
 695.1	27698
 695.6	27658
 696.1	27721
 696.6	27711
 697.1	27721
 697.7	27747
 698.2	27678
 698.7	27705
 699.2	27673
 699.7	27671
 700.3	27633
 700.8	27608
 701.3	27691
 701.8	27639
 702.3	27583
 702.8	27581
 703.4	27557
 703.9	27534
 704.4	27507
 704.9	27470
 705.4	27457
 706.0	27510
 706.5	27487
 707.0	27389
 707.5	27364
 708.0	27373
 708.5	27305
 709.1	27353
 709.6	27310
 710.1	27251
 710.6	27221
 711.1	27195
 711.7	27199
 712.2	27175
 712.7	27169
 713.2	27127
 713.7	27126
 714.2	27073
 714.8	27141
 715.3	27081
 715.8	27074
 716.3	27069
 716.8	27000
 717.3	26985
 717.8	27071
 718.4	27087
 718.9	27019
 719.4	27098
 719.9	27005
 720.4	27055
 720.9	27062
 721.4	27051
 722.0	27080
 722.5	27069
 723.0	27060
 723.5	27073
 724.0	27041
 724.5	27038
 725.0	27071
 725.6	27010
 726.1	27062
 726.6	27162
 727.1	27105
 727.6	27138
 728.1	27161
 728.6	27122
 729.1	27113
 729.7	27096
 730.2	27119
 730.7	27142
 731.2	27177
 731.7	27161
 732.2	27171
 732.7	27137
 733.2	27171
 733.8	27147
 734.3	27172
 734.8	27156
 735.3	27188
 735.8	27179
 736.3	27171
 736.8	27212
 737.3	27267
 737.8	27215
 738.4	27225
 738.9	27187
 739.4	27269
 739.9	27249
 740.4	27269
 740.9	27247
 741.4	27246
 741.9	27234
 742.4	27251
 742.9	27236
 743.4	27301
 744.0	27211
 744.5	27200
 745.0	27192
 745.5	27252
 746.0	27209
 746.5	27217
 747.0	27153
 747.5	27121
 748.0	27087
 748.5	27097
 749.0	27087
 749.5	27152
 750.0	26987
 750.5	27011
 751.1	27001
 751.6	26984
 752.1	26943
 752.6	26894
 753.1	26913
 753.6	26838
 754.1	26793
 754.6	26807
 755.1	26739
 755.6	26726
 756.1	26627
 756.6	26695
 757.1	26644
 757.6	26600
 758.1	26542
 758.6	26520
 759.1	26430
 759.6	26437
 760.1	26360
 760.7	26293
 761.2	26350
 761.7	26277
 762.2	26233
 762.7	26250
 763.2	26107
 763.7	26154
 764.2	26056
 764.7	26041
 765.2	26032
 765.7	25970
 766.2	25904
 766.7	25914
 767.2	25829
 767.7	25811
 768.2	25761
 768.7	25701
 769.2	25666
 769.7	25679
 770.2	25633
 770.7	25619
 771.2	25570
 771.7	25528
 772.2	25522
 772.7	25543
 773.2	25509
 773.7	25449
 774.2	25380
 774.7	25407
 775.2	25378
 775.7	25345
 776.2	25315
 776.7	25338
 777.2	25255
 777.7	25309
 778.2	25276
 778.7	25303
 779.2	25295
 779.7	25314
 780.2	25155
 780.7	25214
 781.2	25205
 781.7	25251
 782.2	25174
 782.6	25224
 783.1	25225
 783.6	25184
 784.1	25144
 784.6	25126
 785.1	25129
 785.6	25117
 786.1	25137
 786.6	25143
 787.1	25081
 787.6	25066
 788.1	25047
 788.6	25031
 789.1	25008
 789.6	25025
 790.1	25027
 790.6	25015
 791.1	24907
 791.6	24893
 792.0	24887
 792.5	24909
 793.0	24868
 793.5	24839
 794.0	24766
 794.5	24825
 795.0	24776
 795.5	24738
 796.0	24723
 796.5	24649
 797.0	24640
 797.5	24653
 798.0	24488
 798.4	24495
 798.9	24455
 799.4	24431
 799.9	24406
 800.4	24259
 800.9	24319
 801.4	24333
 801.9	24256
 802.4	24157
 802.9	24178
 803.3	24137
 803.8	24078
 804.3	23993
 804.8	24016
 805.3	23934
 805.8	23878
 806.3	23849
 806.8	23794
 807.2	23746
 807.7	23691
 808.2	23677
 808.7	23577
 809.2	23549
 809.7	23457
 810.2	23486
 810.7	23393
 811.1	23372
 811.6	23337
 812.1	23265
 812.6	23199
 813.1	23215
 813.6	23194
 814.1	23154
 814.5	23089
 815.0	23075
 815.5	23002
 816.0	22950
 816.5	22981
 817.0	22907
 817.4	22863
 817.9	22872
 818.4	22789
 818.9	22837
 819.4	22767
 819.9	22732
 820.3	22682
 820.8	22663
 821.3	22644
 821.8	22622
 822.3	22563
 822.7	22526
 823.2	22567
 823.7	22500
 824.2	22493
 824.7	22451
 825.2	22452
 825.6	22412
 826.1	22392
 826.6	22425
 827.1	22393
 827.6	22378
 828.0	22310
 828.5	22265
 829.0	22294
 829.5	22225
 829.9	22221
 830.4	22255
 830.9	22225
 831.4	22241
 831.9	22191
 832.3	22252
 832.8	22190
 833.3	22172
 833.8	22241
 834.2	22219
 834.7	22068
 835.2	22147
 835.7	22140
 836.1	22119
 836.6	22088
 837.1	22086
 837.6	22089
 838.0	22111
 838.5	22121
 839.0	22117
 839.5	22103
 839.9	22023
 840.4	22017
 840.9	21976
 841.4	22009
 841.8	22011
 842.3	22015
 842.8	22025
 843.3	22013
 843.7	21912
 844.2	21891
 844.7	21962
 845.1	21931
 845.6	21847
 846.1	21855
 846.6	21883
 847.0	21785
 847.5	21816
 848.0	21786
 848.4	21813
 848.9	21773
 849.4	21731
 849.8	21743
 850.3	21735
 850.8	21765
 851.3	21718
 851.7	21701
 852.2	21686
 852.7	21672
 853.1	21635
 853.6	21573
 854.1	21605
 854.5	21553
 855.0	21531
 855.5	21506
 855.9	21556
 856.4	21531
 856.9	21428
 857.3	21468
 857.8	21424
 858.3	21441
 858.7	21379
 859.2	21393
 859.7	21387
 860.1	21430
 860.6	21396
 861.1	21321
 861.5	21352
 862.0	21337
 862.4	21297
 862.9	21248
 863.4	21279
 863.8	21270
 864.3	21253
 864.8	21159
 865.2	21191
 865.7	21195
 866.1	21192
 866.6	21105
 867.1	21164
 867.5	21138
 868.0	21101
 868.5	21036
 868.9	21033
 869.4	21108
 869.8	21049
 870.3	20993
 870.8	21051
 871.2	20995
 871.7	20973
 872.1	20913
 872.6	20948
 873.0	20914
 873.5	20979
 874.0	20963
 874.4	20843
 874.9	20870
 875.3	20815
 875.8	20709
 876.2	20502
 876.7	20337
 877.2	19989
 877.6	19561
 878.1	19115
