#xlabel Wavelength (nm)
#ylabel Spectrometer Array Counts
#title Exposure time is 9300 ms
## lambda	counts
 349.8	16778
 350.3	17054
 350.8	17302
 351.3	17489
 351.9	17576
 352.4	17677
 352.9	17740
 353.4	17692
 354.0	17685
 354.5	17720
 355.0	17721
 355.5	17735
 356.0	17694
 356.6	17662
 357.1	17708
 357.6	17691
 358.1	17717
 358.7	17659
 359.2	17679
 359.7	17691
 360.2	17725
 360.8	17691
 361.3	17781
 361.8	17729
 362.3	17757
 362.9	17721
 363.4	17793
 363.9	17791
 364.4	17818
 364.9	17733
 365.5	17804
 366.0	17783
 366.5	17746
 367.0	17791
 367.6	17814
 368.1	17811
 368.6	17749
 369.1	17809
 369.7	17856
 370.2	17785
 370.7	17786
 371.2	17833
 371.8	17880
 372.3	17808
 372.8	17880
 373.3	17901
 373.9	17853
 374.4	17863
 374.9	17916
 375.5	17821
 376.0	17941
 376.5	17904
 377.0	17933
 377.6	17878
 378.1	17958
 378.6	17899
 379.1	17909
 379.7	17899
 380.2	17968
 380.7	17976
 381.2	17937
 381.8	17935
 382.3	17979
 382.8	17967
 383.4	18011
 383.9	17973
 384.4	18112
 384.9	18037
 385.5	18063
 386.0	18065
 386.5	18142
 387.1	18085
 387.6	18106
 388.1	18111
 388.6	18137
 389.2	18135
 389.7	18171
 390.2	18154
 390.8	18252
 391.3	18229
 391.8	18241
 392.3	18238
 392.9	18246
 393.4	18247
 393.9	18327
 394.5	18344
 395.0	18301
 395.5	18335
 396.0	18344
 396.6	18323
 397.1	18424
 397.6	18424
 398.2	18433
 398.7	18442
 399.2	18538
 399.8	18423
 400.3	18486
 400.8	18539
 401.3	18521
 401.9	18537
 402.4	18565
 402.9	18557
 403.5	18589
 404.0	18590
 404.5	18556
 405.1	18573
 405.6	18678
 406.1	18654
 406.7	18688
 407.2	18705
 407.7	18799
 408.2	18807
 408.8	18823
 409.3	18871
 409.8	18930
 410.4	18910
 410.9	18927
 411.4	18898
 412.0	18971
 412.5	19032
 413.0	19002
 413.6	19061
 414.1	19033
 414.6	19080
 415.2	19138
 415.7	19093
 416.2	19159
 416.8	19159
 417.3	19158
 417.8	19192
 418.4	19295
 418.9	19249
 419.4	19390
 420.0	19297
 420.5	19369
 421.0	19335
 421.5	19425
 422.1	19413
 422.6	19481
 423.1	19509
 423.7	19495
 424.2	19493
 424.7	19539
 425.3	19519
 425.8	19551
 426.3	19551
 426.9	19618
 427.4	19570
 427.9	19686
 428.5	19647
 429.0	19697
 429.6	19673
 430.1	19771
 430.6	19790
 431.2	19764
 431.7	19878
 432.2	19870
 432.8	19879
 433.3	19999
 433.8	20031
 434.4	20031
 434.9	20067
 435.4	20139
 436.0	20137
 436.5	20156
 437.0	20239
 437.6	20235
 438.1	20293
 438.6	20303
 439.2	20343
 439.7	20339
 440.2	20291
 440.8	20321
 441.3	20330
 441.8	20334
 442.4	20302
 442.9	20330
 443.5	20363
 444.0	20360
 444.5	20389
 445.1	20318
 445.6	20366
 446.1	20390
 446.7	20431
 447.2	20458
 447.7	20468
 448.3	20555
 448.8	20547
 449.3	20611
 449.9	20593
 450.4	20723
 450.9	20793
 451.5	20830
 452.0	20843
 452.6	20903
 453.1	20990
 453.6	21030
 454.2	20967
 454.7	21067
 455.2	21116
 455.8	21187
 456.3	21161
 456.8	21289
 457.4	21241
 457.9	21265
 458.5	21325
 459.0	21291
 459.5	21333
 460.1	21298
 460.6	21343
 461.1	21335
 461.7	21377
 462.2	21341
 462.7	21373
 463.3	21309
 463.8	21379
 464.4	21445
 464.9	21400
 465.4	21475
 466.0	21397
 466.5	21480
 467.0	21437
 467.6	21523
 468.1	21623
 468.7	21582
 469.2	21543
 469.7	21656
 470.3	21667
 470.8	21725
 471.3	21735
 471.9	21725
 472.4	21801
 473.0	21865
 473.5	21907
 474.0	21922
 474.6	21954
 475.1	21980
 475.6	22065
 476.2	22098
 476.7	22093
 477.3	22168
 477.8	22133
 478.3	22089
 478.9	22298
 479.4	22210
 479.9	22249
 480.5	22254
 481.0	22309
 481.6	22354
 482.1	22434
 482.6	22447
 483.2	22476
 483.7	22607
 484.2	22578
 484.8	22462
 485.3	22569
 485.9	22662
 486.4	22647
 486.9	22699
 487.5	22681
 488.0	22713
 488.6	22792
 489.1	22825
 489.6	22891
 490.2	22897
 490.7	22879
 491.2	22858
 491.8	22923
 492.3	22889
 492.9	22941
 493.4	22954
 493.9	22971
 494.5	22972
 495.0	23032
 495.6	22958
 496.1	22966
 496.6	23012
 497.2	22934
 497.7	22899
 498.2	22976
 498.8	22986
 499.3	22905
 499.9	22972
 500.4	22968
 500.9	22968
 501.5	22975
 502.0	23070
 502.6	23075
 503.1	23184
 503.6	23183
 504.2	23176
 504.7	23225
 505.2	23325
 505.8	23360
 506.3	23487
 506.9	23553
 507.4	23575
 507.9	23603
 508.5	23697
 509.0	23800
 509.6	23914
 510.1	23934
 510.6	24028
 511.2	24093
 511.7	24130
 512.2	24241
 512.8	24301
 513.3	24303
 513.9	24329
 514.4	24405
 514.9	24499
 515.5	24417
 516.0	24495
 516.6	24461
 517.1	24504
 517.6	24471
 518.2	24435
 518.7	24367
 519.3	24391
 519.8	24396
 520.3	24371
 520.9	24299
 521.4	24279
 521.9	24311
 522.5	24212
 523.0	24207
 523.6	24223
 524.1	24073
 524.6	24112
 525.2	24131
 525.7	24171
 526.3	24106
 526.8	24207
 527.3	24173
 527.9	24217
 528.4	24223
 528.9	24305
 529.5	24350
 530.0	24374
 530.6	24453
 531.1	24503
 531.6	24477
 532.2	24631
 532.7	24648
 533.3	24739
 533.8	24911
 534.3	25002
 534.9	25058
 535.4	25061
 536.0	25189
 536.5	25278
 537.0	25295
 537.6	25371
 538.1	25467
 538.6	25534
 539.2	25519
 539.7	25578
 540.3	25715
 540.8	25701
 541.3	25690
 541.9	25744
 542.4	25763
 543.0	25837
 543.5	25812
 544.0	25793
 544.6	25825
 545.1	25842
 545.6	25863
 546.2	25850
 546.7	25759
 547.3	25808
 547.8	25782
 548.3	25817
 548.9	25726
 549.4	25719
 550.0	25679
 550.5	25733
 551.0	25761
 551.6	25716
 552.1	25722
 552.6	25723
 553.2	25687
 553.7	25665
 554.3	25698
 554.8	25759
 555.3	25633
 555.9	25700
 556.4	25685
 556.9	25797
 557.5	25831
 558.0	25811
 558.6	25809
 559.1	25886
 559.6	25895
 560.2	25923
 560.7	25945
 561.3	25949
 561.8	25947
 562.3	26083
 562.9	26089
 563.4	26141
 563.9	26143
 564.5	26175
 565.0	26176
 565.6	26213
 566.1	26216
 566.6	26221
 567.2	26223
 567.7	26323
 568.2	26265
 568.8	26275
 569.3	26258
 569.9	26321
 570.4	26309
 570.9	26294
 571.5	26303
 572.0	26302
 572.5	26361
 573.1	26329
 573.6	26393
 574.1	26385
 574.7	26405
 575.2	26394
 575.8	26453
 576.3	26549
 576.8	26532
 577.4	26564
 577.9	26607
 578.4	26597
 579.0	26641
 579.5	26762
 580.1	26719
 580.6	26765
 581.1	26863
 581.7	26916
 582.2	26891
 582.7	26955
 583.3	27019
 583.8	27013
 584.3	27000
 584.9	27068
 585.4	27098
 586.0	27094
 586.5	27150
 587.0	27139
 587.6	27219
 588.1	27197
 588.6	27271
 589.2	27227
 589.7	27249
 590.2	27243
 590.8	27231
 591.3	27247
 591.9	27189
 592.4	27233
 592.9	27165
 593.5	27136
 594.0	27106
 594.5	27103
 595.1	27050
 595.6	26995
 596.1	27031
 596.7	26969
 597.2	26977
 597.7	26895
 598.3	26890
 598.8	26839
 599.3	26811
 599.9	26771
 600.4	26741
 601.0	26730
 601.5	26699
 602.0	26682
 602.6	26627
 603.1	26641
 603.6	26643
 604.2	26728
 604.7	26653
 605.2	26723
 605.8	26646
 606.3	26686
 606.8	26766
 607.4	26772
 607.9	26827
 608.4	26796
 609.0	26853
 609.5	26914
 610.0	26915
 610.6	27028
 611.1	26983
 611.6	27050
 612.2	27073
 612.7	27158
 613.2	27189
 613.8	27162
 614.3	27233
 614.8	27307
 615.4	27298
 615.9	27425
 616.4	27525
 617.0	27517
 617.5	27638
 618.0	27711
 618.6	27702
 619.1	27795
 619.6	27917
 620.2	27984
 620.7	28102
 621.2	28125
 621.8	28214
 622.3	28290
 622.8	28306
 623.4	28372
 623.9	28468
 624.4	28474
 625.0	28483
 625.5	28505
 626.0	28525
 626.6	28587
 627.1	28564
 627.6	28518
 628.2	28483
 628.7	28516
 629.2	28497
 629.8	28503
 630.3	28480
 630.8	28446
 631.4	28388
 631.9	28378
 632.4	28237
 632.9	28213
 633.5	28175
 634.0	28099
 634.5	28111
 635.1	28019
 635.6	27969
 636.1	27909
 636.7	27902
 637.2	27862
 637.7	27739
 638.3	27797
 638.8	27751
 639.3	27738
 639.8	27646
 640.4	27641
 640.9	27639
 641.4	27539
 642.0	27500
 642.5	27499
 643.0	27465
 643.6	27534
 644.1	27489
 644.6	27496
 645.1	27515
 645.7	27502
 646.2	27462
 646.7	27483
 647.3	27517
 647.8	27535
 648.3	27516
 648.9	27567
 649.4	27504
 649.9	27578
 650.4	27611
 651.0	27669
 651.5	27699
 652.0	27771
 652.6	27749
 653.1	27847
 653.6	27798
 654.1	27876
 654.7	27871
 655.2	27976
 655.7	28031
 656.3	28067
 656.8	28044
 657.3	28126
 657.8	28101
 658.4	28127
 658.9	28165
 659.4	28249
 659.9	28267
 660.5	28260
 661.0	28311
 661.5	28367
 662.1	28346
 662.6	28365
 663.1	28337
 663.6	28424
 664.2	28378
 664.7	28357
 665.2	28296
 665.7	28401
 666.3	28367
 666.8	28360
 667.3	28356
 667.8	28322
 668.4	28334
 668.9	28338
 669.4	28303
 669.9	28313
 670.5	28243
 671.0	28256
 671.5	28198
 672.0	28230
 672.6	28215
 673.1	28234
 673.6	28139
 674.1	28151
 674.7	28130
 675.2	28158
 675.7	28027
 676.2	28007
 676.8	28055
 677.3	28057
 677.8	27968
 678.3	28057
 678.9	27979
 679.4	27918
 679.9	27957
 680.4	27946
 681.0	27902
 681.5	27922
 682.0	27871
 682.5	27897
 683.1	27797
 683.6	27822
 684.1	27752
 684.6	27843
 685.1	27791
 685.7	27794
 686.2	27757
 686.7	27730
 687.2	27713
 687.8	27762
 688.3	27702
 688.8	27721
 689.3	27670
 689.8	27699
 690.4	27681
 690.9	27695
 691.4	27705
 691.9	27710
 692.4	27687
 693.0	27751
 693.5	27714
 694.0	27700
 694.5	27703
 695.1	27679
 695.6	27643
 696.1	27703
 696.6	27692
 697.1	27710
 697.7	27734
 698.2	27659
 698.7	27687
 699.2	27649
 699.7	27651
 700.3	27617
 700.8	27591
 701.3	27674
 701.8	27624
 702.3	27563
 702.8	27564
 703.4	27539
 703.9	27521
 704.4	27489
 704.9	27444
 705.4	27441
 706.0	27494
 706.5	27467
 707.0	27371
 707.5	27348
 708.0	27357
 708.5	27295
 709.1	27337
 709.6	27289
 710.1	27231
 710.6	27197
 711.1	27178
 711.7	27183
 712.2	27157
 712.7	27159
 713.2	27117
 713.7	27111
 714.2	27059
 714.8	27128
 715.3	27067
 715.8	27059
 716.3	27058
 716.8	26984
 717.3	26969
 717.8	27060
 718.4	27069
 718.9	27002
 719.4	27080
 719.9	26997
 720.4	27039
 720.9	27048
 721.4	27039
 722.0	27069
 722.5	27048
 723.0	27049
 723.5	27065
 724.0	27025
 724.5	27022
 725.0	27057
 725.6	26993
 726.1	27047
 726.6	27149
 727.1	27087
 727.6	27126
 728.1	27148
 728.6	27109
 729.1	27097
 729.7	27084
 730.2	27102
 730.7	27130
 731.2	27161
 731.7	27143
 732.2	27152
 732.7	27131
 733.2	27158
 733.8	27131
 734.3	27160
 734.8	27145
 735.3	27172
 735.8	27166
 736.3	27156
 736.8	27191
 737.3	27249
 737.8	27207
 738.4	27207
 738.9	27171
 739.4	27260
 739.9	27235
 740.4	27257
 740.9	27235
 741.4	27234
 741.9	27226
 742.4	27243
 742.9	27222
 743.4	27282
 744.0	27190
 744.5	27185
 745.0	27182
 745.5	27237
 746.0	27198
 746.5	27201
 747.0	27135
 747.5	27111
 748.0	27071
 748.5	27081
 749.0	27076
 749.5	27142
 750.0	26977
 750.5	27002
 751.1	26987
 751.6	26972
 752.1	26934
 752.6	26879
 753.1	26907
 753.6	26825
 754.1	26777
 754.6	26794
 755.1	26729
 755.6	26715
 756.1	26619
 756.6	26679
 757.1	26630
 757.6	26587
 758.1	26530
 758.6	26507
 759.1	26419
 759.6	26425
 760.1	26347
 760.7	26287
 761.2	26339
 761.7	26263
 762.2	26219
 762.7	26234
 763.2	26098
 763.7	26141
 764.2	26048
 764.7	26029
 765.2	26024
 765.7	25955
 766.2	25892
 766.7	25903
 767.2	25821
 767.7	25799
 768.2	25747
 768.7	25694
 769.2	25658
 769.7	25669
 770.2	25629
 770.7	25607
 771.2	25561
 771.7	25523
 772.2	25509
 772.7	25537
 773.2	25500
 773.7	25436
 774.2	25371
 774.7	25400
 775.2	25371
 775.7	25333
 776.2	25309
 776.7	25323
 777.2	25246
 777.7	25299
 778.2	25267
 778.7	25293
 779.2	25285
 779.7	25307
 780.2	25150
 780.7	25202
 781.2	25199
 781.7	25248
 782.2	25167
 782.6	25217
 783.1	25218
 783.6	25177
 784.1	25137
 784.6	25117
 785.1	25125
 785.6	25116
 786.1	25129
 786.6	25136
 787.1	25076
 787.6	25062
 788.1	25037
 788.6	25020
 789.1	25006
 789.6	25019
 790.1	25017
 790.6	25000
 791.1	24899
 791.6	24888
 792.0	24881
 792.5	24901
 793.0	24866
 793.5	24839
 794.0	24754
 794.5	24816
 795.0	24769
 795.5	24727
 796.0	24715
 796.5	24640
 797.0	24633
 797.5	24651
 798.0	24482
 798.4	24487
 798.9	24450
 799.4	24429
 799.9	24399
 800.4	24250
 800.9	24308
 801.4	24327
 801.9	24253
 802.4	24150
 802.9	24172
 803.3	24131
 803.8	24068
 804.3	23989
 804.8	24014
 805.3	23937
 805.8	23877
 806.3	23841
 806.8	23787
 807.2	23744
 807.7	23689
 808.2	23674
 808.7	23579
 809.2	23547
 809.7	23452
 810.2	23479
 810.7	23389
 811.1	23367
 811.6	23335
 812.1	23261
 812.6	23191
 813.1	23213
 813.6	23199
 814.1	23151
 814.5	23083
 815.0	23071
 815.5	23005
 816.0	22944
 816.5	22979
 817.0	22899
 817.4	22863
 817.9	22871
 818.4	22783
 818.9	22836
 819.4	22765
 819.9	22733
 820.3	22679
 820.8	22665
 821.3	22644
 821.8	22624
 822.3	22559
 822.7	22527
 823.2	22564
 823.7	22507
 824.2	22491
 824.7	22450
 825.2	22453
 825.6	22415
 826.1	22393
 826.6	22422
 827.1	22394
 827.6	22378
 828.0	22307
 828.5	22267
 829.0	22293
 829.5	22225
 829.9	22223
 830.4	22251
 830.9	22224
 831.4	22243
 831.9	22191
 832.3	22253
 832.8	22193
 833.3	22177
 833.8	22243
 834.2	22219
 834.7	22072
 835.2	22148
 835.7	22139
 836.1	22121
 836.6	22092
 837.1	22090
 837.6	22090
 838.0	22113
 838.5	22127
 839.0	22124
 839.5	22101
 839.9	22019
 840.4	22019
 840.9	21975
 841.4	22010
 841.8	22016
 842.3	22016
 842.8	22031
 843.3	22015
 843.7	21913
 844.2	21895
 844.7	21965
 845.1	21929
 845.6	21851
 846.1	21858
 846.6	21889
 847.0	21782
 847.5	21812
 848.0	21785
 848.4	21813
 848.9	21767
 849.4	21742
 849.8	21747
 850.3	21727
 850.8	21770
 851.3	21719
 851.7	21703
 852.2	21692
 852.7	21677
 853.1	21642
 853.6	21575
 854.1	21607
 854.5	21563
 855.0	21537
 855.5	21514
 855.9	21555
 856.4	21535
 856.9	21435
 857.3	21471
 857.8	21423
 858.3	21441
 858.7	21379
 859.2	21391
 859.7	21387
 860.1	21431
 860.6	21394
 861.1	21323
 861.5	21348
 862.0	21350
 862.4	21300
 862.9	21251
 863.4	21279
 863.8	21275
 864.3	21251
 864.8	21162
 865.2	21199
 865.7	21205
 866.1	21203
 866.6	21115
 867.1	21172
 867.5	21139
 868.0	21109
 868.5	21043
 868.9	21035
 869.4	21114
 869.8	21061
 870.3	20997
 870.8	21053
 871.2	20993
 871.7	20967
 872.1	20899
 872.6	20942
 873.0	20902
 873.5	20976
 874.0	20959
 874.4	20849
 874.9	20888
 875.3	20859
 875.8	20775
 876.2	20587
 876.7	20426
 877.2	20072
 877.6	19620
 878.1	19143
