#xlabel Wavelength (nm)
#ylabel Spectrometer Array Counts
#title Exposure time is 10000 ms
## lambda	counts
 349.8	17529
 350.3	17805
 350.8	18070
 351.3	18273
 351.9	18377
 352.4	18484
 352.9	18558
 353.4	18512
 354.0	18508
 354.5	18543
 355.0	18552
 355.5	18563
 356.0	18523
 356.6	18492
 357.1	18539
 357.6	18518
 358.1	18547
 358.7	18491
 359.2	18511
 359.7	18530
 360.2	18572
 360.8	18534
 361.3	18632
 361.8	18583
 362.3	18613
 362.9	18574
 363.4	18651
 363.9	18649
 364.4	18683
 364.9	18593
 365.5	18674
 366.0	18657
 366.5	18615
 367.0	18663
 367.6	18689
 368.1	18695
 368.6	18631
 369.1	18694
 369.7	18750
 370.2	18676
 370.7	18682
 371.2	18727
 371.8	18787
 372.3	18709
 372.8	18792
 373.3	18809
 373.9	18757
 374.4	18776
 374.9	18833
 375.5	18729
 376.0	18863
 376.5	18832
 377.0	18863
 377.6	18809
 378.1	18894
 378.6	18838
 379.1	18847
 379.7	18837
 380.2	18915
 380.7	18927
 381.2	18889
 381.8	18890
 382.3	18936
 382.8	18925
 383.4	18977
 383.9	18930
 384.4	19086
 384.9	18999
 385.5	19026
 386.0	19028
 386.5	19105
 387.1	19039
 387.6	19062
 388.1	19075
 388.6	19101
 389.2	19090
 389.7	19132
 390.2	19115
 390.8	19209
 391.3	19193
 391.8	19205
 392.3	19205
 392.9	19217
 393.4	19220
 393.9	19300
 394.5	19315
 395.0	19283
 395.5	19314
 396.0	19321
 396.6	19302
 397.1	19403
 397.6	19409
 398.2	19419
 398.7	19425
 399.2	19515
 399.8	19398
 400.3	19473
 400.8	19518
 401.3	19495
 401.9	19522
 402.4	19544
 402.9	19543
 403.5	19584
 404.0	19582
 404.5	19546
 405.1	19570
 405.6	19674
 406.1	19663
 406.7	19683
 407.2	19713
 407.7	19802
 408.2	19816
 408.8	19830
 409.3	19877
 409.8	19940
 410.4	19913
 410.9	19941
 411.4	19904
 412.0	19983
 412.5	20039
 413.0	20003
 413.6	20060
 414.1	20038
 414.6	20079
 415.2	20136
 415.7	20091
 416.2	20151
 416.8	20146
 417.3	20147
 417.8	20183
 418.4	20289
 418.9	20233
 419.4	20378
 420.0	20285
 420.5	20355
 421.0	20312
 421.5	20410
 422.1	20397
 422.6	20467
 423.1	20502
 423.7	20481
 424.2	20478
 424.7	20525
 425.3	20511
 425.8	20539
 426.3	20534
 426.9	20611
 427.4	20561
 427.9	20685
 428.5	20641
 429.0	20693
 429.6	20677
 430.1	20781
 430.6	20799
 431.2	20769
 431.7	20901
 432.2	20900
 432.8	20903
 433.3	21045
 433.8	21075
 434.4	21079
 434.9	21123
 435.4	21199
 436.0	21202
 436.5	21223
 437.0	21321
 437.6	21319
 438.1	21381
 438.6	21401
 439.2	21443
 439.7	21436
 440.2	21392
 440.8	21419
 441.3	21431
 441.8	21441
 442.4	21413
 442.9	21439
 443.5	21473
 444.0	21476
 444.5	21507
 445.1	21427
 445.6	21472
 446.1	21517
 446.7	21549
 447.2	21589
 447.7	21595
 448.3	21698
 448.8	21691
 449.3	21763
 449.9	21751
 450.4	21887
 450.9	21971
 451.5	22016
 452.0	22034
 452.6	22095
 453.1	22202
 453.6	22253
 454.2	22194
 454.7	22301
 455.2	22367
 455.8	22438
 456.3	22414
 456.8	22563
 457.4	22519
 457.9	22545
 458.5	22602
 459.0	22578
 459.5	22626
 460.1	22591
 460.6	22639
 461.1	22629
 461.7	22681
 462.2	22637
 462.7	22679
 463.3	22612
 463.8	22688
 464.4	22761
 464.9	22719
 465.4	22798
 466.0	22723
 466.5	22817
 467.0	22764
 467.6	22856
 468.1	22971
 468.7	22931
 469.2	22900
 469.7	23024
 470.3	23033
 470.8	23105
 471.3	23121
 471.9	23119
 472.4	23206
 473.0	23271
 473.5	23324
 474.0	23353
 474.6	23387
 475.1	23418
 475.6	23518
 476.2	23552
 476.7	23553
 477.3	23640
 477.8	23608
 478.3	23561
 478.9	23785
 479.4	23707
 479.9	23749
 480.5	23760
 481.0	23820
 481.6	23871
 482.1	23969
 482.6	23974
 483.2	24031
 483.7	24164
 484.2	24149
 484.8	24021
 485.3	24146
 485.9	24252
 486.4	24250
 486.9	24302
 487.5	24285
 488.0	24324
 488.6	24408
 489.1	24451
 489.6	24524
 490.2	24535
 490.7	24527
 491.2	24506
 491.8	24578
 492.3	24546
 492.9	24609
 493.4	24623
 493.9	24646
 494.5	24647
 495.0	24709
 495.6	24634
 496.1	24643
 496.6	24691
 497.2	24611
 497.7	24579
 498.2	24655
 498.8	24673
 499.3	24597
 499.9	24656
 500.4	24668
 500.9	24666
 501.5	24677
 502.0	24781
 502.6	24793
 503.1	24904
 503.6	24918
 504.2	24924
 504.7	24979
 505.2	25091
 505.8	25128
 506.3	25279
 506.9	25364
 507.4	25399
 507.9	25442
 508.5	25547
 509.0	25661
 509.6	25802
 510.1	25838
 510.6	25936
 511.2	26015
 511.7	26082
 512.2	26196
 512.8	26273
 513.3	26289
 513.9	26322
 514.4	26413
 514.9	26519
 515.5	26442
 516.0	26523
 516.6	26485
 517.1	26535
 517.6	26503
 518.2	26467
 518.7	26386
 519.3	26415
 519.8	26417
 520.3	26387
 520.9	26317
 521.4	26295
 521.9	26322
 522.5	26212
 523.0	26201
 523.6	26220
 524.1	26065
 524.6	26101
 525.2	26118
 525.7	26167
 526.3	26103
 526.8	26214
 527.3	26180
 527.9	26227
 528.4	26245
 528.9	26329
 529.5	26395
 530.0	26419
 530.6	26521
 531.1	26576
 531.6	26555
 532.2	26727
 532.7	26765
 533.3	26872
 533.8	27056
 534.3	27167
 534.9	27240
 535.4	27271
 536.0	27405
 536.5	27507
 537.0	27558
 537.6	27645
 538.1	27755
 538.6	27832
 539.2	27837
 539.7	27907
 540.3	28039
 540.8	28057
 541.3	28052
 541.9	28115
 542.4	28137
 543.0	28217
 543.5	28199
 544.0	28180
 544.6	28225
 545.1	28251
 545.6	28268
 546.2	28255
 546.7	28161
 547.3	28225
 547.8	28186
 548.3	28224
 548.9	28134
 549.4	28121
 550.0	28085
 550.5	28144
 551.0	28171
 551.6	28121
 552.1	28123
 552.6	28129
 553.2	28079
 553.7	28063
 554.3	28097
 554.8	28167
 555.3	28043
 555.9	28117
 556.4	28103
 556.9	28221
 557.5	28264
 558.0	28252
 558.6	28254
 559.1	28344
 559.6	28351
 560.2	28398
 560.7	28432
 561.3	28430
 561.8	28436
 562.3	28588
 562.9	28599
 563.4	28659
 563.9	28671
 564.5	28704
 565.0	28713
 565.6	28761
 566.1	28776
 566.6	28788
 567.2	28796
 567.7	28898
 568.2	28847
 568.8	28857
 569.3	28849
 569.9	28916
 570.4	28901
 570.9	28895
 571.5	28908
 572.0	28914
 572.5	28979
 573.1	28948
 573.6	29026
 574.1	29025
 574.7	29047
 575.2	29043
 575.8	29115
 576.3	29208
 576.8	29204
 577.4	29249
 577.9	29297
 578.4	29307
 579.0	29349
 579.5	29491
 580.1	29455
 580.6	29519
 581.1	29621
 581.7	29691
 582.2	29674
 582.7	29741
 583.3	29817
 583.8	29835
 584.3	29820
 584.9	29907
 585.4	29931
 586.0	29947
 586.5	30011
 587.0	30007
 587.6	30101
 588.1	30083
 588.6	30156
 589.2	30115
 589.7	30147
 590.2	30150
 590.8	30142
 591.3	30165
 591.9	30101
 592.4	30149
 592.9	30071
 593.5	30038
 594.0	30011
 594.5	30002
 595.1	29945
 595.6	29883
 596.1	29906
 596.7	29845
 597.2	29854
 597.7	29771
 598.3	29750
 598.8	29704
 599.3	29671
 599.9	29606
 600.4	29577
 601.0	29560
 601.5	29538
 602.0	29511
 602.6	29465
 603.1	29478
 603.6	29483
 604.2	29571
 604.7	29503
 605.2	29573
 605.8	29502
 606.3	29548
 606.8	29630
 607.4	29645
 607.9	29712
 608.4	29683
 609.0	29757
 609.5	29828
 610.0	29837
 610.6	29960
 611.1	29913
 611.6	30007
 612.2	30043
 612.7	30135
 613.2	30180
 613.8	30165
 614.3	30258
 614.8	30337
 615.4	30355
 615.9	30495
 616.4	30613
 617.0	30626
 617.5	30759
 618.0	30847
 618.6	30870
 619.1	30981
 619.6	31113
 620.2	31207
 620.7	31352
 621.2	31399
 621.8	31501
 622.3	31595
 622.8	31638
 623.4	31725
 623.9	31832
 624.4	31851
 625.0	31881
 625.5	31899
 626.0	31930
 626.6	31989
 627.1	31977
 627.6	31923
 628.2	31898
 628.7	31934
 629.2	31910
 629.8	31919
 630.3	31895
 630.8	31855
 631.4	31793
 631.9	31769
 632.4	31620
 632.9	31588
 633.5	31534
 634.0	31454
 634.5	31459
 635.1	31351
 635.6	31296
 636.1	31231
 636.7	31199
 637.2	31152
 637.7	31013
 638.3	31069
 638.8	31015
 639.3	30990
 639.8	30889
 640.4	30882
 640.9	30871
 641.4	30775
 642.0	30723
 642.5	30717
 643.0	30677
 643.6	30753
 644.1	30701
 644.6	30717
 645.1	30719
 645.7	30728
 646.2	30682
 646.7	30713
 647.3	30740
 647.8	30765
 648.3	30744
 648.9	30804
 649.4	30743
 649.9	30823
 650.4	30863
 651.0	30939
 651.5	30977
 652.0	31055
 652.6	31045
 653.1	31153
 653.6	31114
 654.1	31197
 654.7	31204
 655.2	31327
 655.7	31397
 656.3	31439
 656.8	31431
 657.3	31521
 657.8	31515
 658.4	31555
 658.9	31607
 659.4	31691
 659.9	31714
 660.5	31714
 661.0	31779
 661.5	31836
 662.1	31826
 662.6	31845
 663.1	31831
 663.6	31925
 664.2	31878
 664.7	31865
 665.2	31802
 665.7	31914
 666.3	31876
 666.8	31871
 667.3	31865
 667.8	31836
 668.4	31847
 668.9	31845
 669.4	31815
 669.9	31825
 670.5	31752
 671.0	31758
 671.5	31700
 672.0	31729
 672.6	31703
 673.1	31729
 673.6	31632
 674.1	31644
 674.7	31621
 675.2	31647
 675.7	31515
 676.2	31494
 676.8	31542
 677.3	31525
 677.8	31444
 678.3	31527
 678.9	31447
 679.4	31379
 679.9	31421
 680.4	31403
 681.0	31357
 681.5	31370
 682.0	31320
 682.5	31339
 683.1	31243
 683.6	31265
 684.1	31199
 684.6	31284
 685.1	31220
 685.7	31233
 686.2	31208
 686.7	31160
 687.2	31155
 687.8	31206
 688.3	31149
 688.8	31162
 689.3	31105
 689.8	31142
 690.4	31127
 690.9	31136
 691.4	31161
 691.9	31162
 692.4	31145
 693.0	31207
 693.5	31179
 694.0	31168
 694.5	31169
 695.1	31148
 695.6	31114
 696.1	31186
 696.6	31173
 697.1	31195
 697.7	31219
 698.2	31151
 698.7	31179
 699.2	31141
 699.7	31145
 700.3	31097
 700.8	31077
 701.3	31157
 701.8	31114
 702.3	31055
 702.8	31053
 703.4	31033
 703.9	30999
 704.4	30955
 704.9	30921
 705.4	30911
 706.0	30958
 706.5	30927
 707.0	30833
 707.5	30801
 708.0	30803
 708.5	30735
 709.1	30781
 709.6	30724
 710.1	30660
 710.6	30631
 711.1	30593
 711.7	30597
 712.2	30568
 712.7	30565
 713.2	30517
 713.7	30513
 714.2	30455
 714.8	30526
 715.3	30461
 715.8	30456
 716.3	30457
 716.8	30382
 717.3	30369
 717.8	30454
 718.4	30462
 718.9	30407
 719.4	30493
 719.9	30397
 720.4	30450
 720.9	30474
 721.4	30457
 722.0	30492
 722.5	30491
 723.0	30493
 723.5	30508
 724.0	30482
 724.5	30477
 725.0	30520
 725.6	30458
 726.1	30519
 726.6	30627
 727.1	30576
 727.6	30614
 728.1	30645
 728.6	30602
 729.1	30602
 729.7	30584
 730.2	30621
 730.7	30645
 731.2	30681
 731.7	30670
 732.2	30687
 732.7	30664
 733.2	30701
 733.8	30673
 734.3	30706
 734.8	30694
 735.3	30734
 735.8	30737
 736.3	30733
 736.8	30779
 737.3	30847
 737.8	30803
 738.4	30809
 738.9	30771
 739.4	30868
 739.9	30852
 740.4	30881
 740.9	30861
 741.4	30858
 741.9	30851
 742.4	30871
 742.9	30851
 743.4	30912
 744.0	30820
 744.5	30807
 745.0	30801
 745.5	30857
 746.0	30819
 746.5	30825
 747.0	30750
 747.5	30711
 748.0	30686
 748.5	30685
 749.0	30674
 749.5	30739
 750.0	30565
 750.5	30582
 751.1	30561
 751.6	30538
 752.1	30495
 752.6	30447
 753.1	30463
 753.6	30373
 754.1	30313
 754.6	30321
 755.1	30250
 755.6	30229
 756.1	30119
 756.6	30175
 757.1	30113
 757.6	30069
 758.1	29996
 758.6	29955
 759.1	29853
 759.6	29851
 760.1	29769
 760.7	29689
 761.2	29737
 761.7	29662
 762.2	29611
 762.7	29609
 763.2	29465
 763.7	29501
 764.2	29397
 764.7	29358
 765.2	29343
 765.7	29268
 766.2	29195
 766.7	29187
 767.2	29092
 767.7	29052
 768.2	28999
 768.7	28929
 769.2	28877
 769.7	28878
 770.2	28822
 770.7	28791
 771.2	28736
 771.7	28689
 772.2	28678
 772.7	28691
 773.2	28646
 773.7	28577
 774.2	28505
 774.7	28523
 775.2	28479
 775.7	28441
 776.2	28408
 776.7	28426
 777.2	28337
 777.7	28383
 778.2	28340
 778.7	28369
 779.2	28357
 779.7	28366
 780.2	28212
 780.7	28259
 781.2	28245
 781.7	28290
 782.2	28213
 782.6	28263
 783.1	28253
 783.6	28216
 784.1	28167
 784.6	28147
 785.1	28150
 785.6	28143
 786.1	28151
 786.6	28155
 787.1	28095
 787.6	28081
 788.1	28053
 788.6	28029
 789.1	28006
 789.6	28015
 790.1	28011
 790.6	27994
 791.1	27883
 791.6	27866
 792.0	27852
 792.5	27856
 793.0	27807
 793.5	27783
 794.0	27697
 794.5	27755
 795.0	27694
 795.5	27650
 796.0	27623
 796.5	27547
 797.0	27526
 797.5	27528
 798.0	27346
 798.4	27345
 798.9	27289
 799.4	27261
 799.9	27219
 800.4	27055
 800.9	27107
 801.4	27106
 801.9	27015
 802.4	26899
 802.9	26907
 803.3	26851
 803.8	26774
 804.3	26684
 804.8	26690
 805.3	26596
 805.8	26521
 806.3	26474
 806.8	26407
 807.2	26354
 807.7	26283
 808.2	26255
 808.7	26135
 809.2	26097
 809.7	25983
 810.2	26000
 810.7	25894
 811.1	25858
 811.6	25817
 812.1	25730
 812.6	25648
 813.1	25653
 813.6	25630
 814.1	25579
 814.5	25497
 815.0	25479
 815.5	25401
 816.0	25316
 816.5	25340
 817.0	25259
 817.4	25211
 817.9	25212
 818.4	25105
 818.9	25151
 819.4	25080
 819.9	25030
 820.3	24968
 820.8	24943
 821.3	24925
 821.8	24902
 822.3	24815
 822.7	24764
 823.2	24807
 823.7	24739
 824.2	24715
 824.7	24671
 825.2	24657
 825.6	24613
 826.1	24588
 826.6	24617
 827.1	24573
 827.6	24557
 828.0	24481
 828.5	24437
 829.0	24455
 829.5	24381
 829.9	24367
 830.4	24403
 830.9	24365
 831.4	24377
 831.9	24315
 832.3	24376
 832.8	24301
 833.3	24291
 833.8	24350
 834.2	24327
 834.7	24165
 835.2	24245
 835.7	24234
 836.1	24216
 836.6	24180
 837.1	24171
 837.6	24168
 838.0	24185
 838.5	24199
 839.0	24186
 839.5	24171
 839.9	24079
 840.4	24082
 840.9	24028
 841.4	24057
 841.8	24071
 842.3	24067
 842.8	24075
 843.3	24058
 843.7	23941
 844.2	23921
 844.7	23989
 845.1	23951
 845.6	23869
 846.1	23876
 846.6	23889
 847.0	23788
 847.5	23824
 848.0	23789
 848.4	23808
 848.9	23757
 849.4	23719
 849.8	23719
 850.3	23713
 850.8	23732
 851.3	23679
 851.7	23655
 852.2	23639
 852.7	23621
 853.1	23583
 853.6	23515
 854.1	23534
 854.5	23483
 855.0	23446
 855.5	23425
 855.9	23463
 856.4	23427
 856.9	23336
 857.3	23362
 857.8	23309
 858.3	23311
 858.7	23245
 859.2	23253
 859.7	23254
 860.1	23294
 860.6	23249
 861.1	23170
 861.5	23197
 862.0	23178
 862.4	23137
 862.9	23083
 863.4	23102
 863.8	23090
 864.3	23066
 864.8	22972
 865.2	22996
 865.7	23000
 866.1	22998
 866.6	22896
 867.1	22955
 867.5	22924
 868.0	22886
 868.5	22821
 868.9	22795
 869.4	22878
 869.8	22818
 870.3	22756
 870.8	22809
 871.2	22745
 871.7	22721
 872.1	22656
 872.6	22689
 873.0	22649
 873.5	22711
 874.0	22685
 874.4	22574
 874.9	22603
 875.3	22559
 875.8	22454
 876.2	22238
 876.7	22055
 877.2	21673
 877.6	21190
 878.1	20684
