#xlabel Wavelength (nm)
#ylabel Spectrometer Array Counts
#title Exposure time is 10000 ms
## lambda	counts
 349.8	17352
 350.3	17600
 350.8	17839
 351.3	18035
 351.9	18145
 352.4	18261
 352.9	18344
 353.4	18319
 354.0	18328
 354.5	18379
 355.0	18387
 355.5	18405
 356.0	18364
 356.6	18330
 357.1	18379
 357.6	18356
 358.1	18378
 358.7	18317
 359.2	18328
 359.7	18341
 360.2	18381
 360.8	18339
 361.3	18435
 361.8	18380
 362.3	18406
 362.9	18361
 363.4	18435
 363.9	18433
 364.4	18461
 364.9	18367
 365.5	18444
 366.0	18421
 366.5	18376
 367.0	18419
 367.6	18446
 368.1	18445
 368.6	18381
 369.1	18439
 369.7	18489
 370.2	18411
 370.7	18407
 371.2	18451
 371.8	18503
 372.3	18425
 372.8	18496
 373.3	18513
 373.9	18458
 374.4	18470
 374.9	18519
 375.5	18409
 376.0	18533
 376.5	18496
 377.0	18519
 377.6	18462
 378.1	18537
 378.6	18478
 379.1	18481
 379.7	18454
 380.2	18529
 380.7	18528
 381.2	18488
 381.8	18478
 382.3	18518
 382.8	18498
 383.4	18545
 383.9	18489
 384.4	18640
 384.9	18550
 385.5	18567
 386.0	18569
 386.5	18642
 387.1	18570
 387.6	18588
 388.1	18590
 388.6	18606
 389.2	18596
 389.7	18615
 390.2	18587
 390.8	18676
 391.3	18643
 391.8	18638
 392.3	18627
 392.9	18623
 393.4	18618
 393.9	18683
 394.5	18688
 395.0	18634
 395.5	18654
 396.0	18654
 396.6	18622
 397.1	18718
 397.6	18708
 398.2	18714
 398.7	18715
 399.2	18803
 399.8	18674
 400.3	18742
 400.8	18787
 401.3	18758
 401.9	18778
 402.4	18790
 402.9	18778
 403.5	18809
 404.0	18795
 404.5	18750
 405.1	18750
 405.6	18845
 406.1	18815
 406.7	18825
 407.2	18831
 407.7	18908
 408.2	18907
 408.8	18901
 409.3	18935
 409.8	18979
 410.4	18938
 410.9	18939
 411.4	18893
 412.0	18959
 412.5	19003
 413.0	18959
 413.6	18997
 414.1	18961
 414.6	18989
 415.2	19036
 415.7	18975
 416.2	19018
 416.8	19005
 417.3	18991
 417.8	19014
 418.4	19097
 418.9	19034
 419.4	19170
 420.0	19058
 420.5	19119
 421.0	19066
 421.5	19148
 422.1	19123
 422.6	19177
 423.1	19208
 423.7	19169
 424.2	19160
 424.7	19195
 425.3	19170
 425.8	19190
 426.3	19178
 426.9	19237
 427.4	19178
 427.9	19285
 428.5	19229
 429.0	19272
 429.6	19228
 430.1	19308
 430.6	19311
 431.2	19247
 431.7	19349
 432.2	19322
 432.8	19297
 433.3	19410
 433.8	19416
 434.4	19389
 434.9	19407
 435.4	19454
 436.0	19437
 436.5	19434
 437.0	19513
 437.6	19487
 438.1	19543
 438.6	19547
 439.2	19572
 439.7	19561
 440.2	19508
 440.8	19539
 441.3	19538
 441.8	19548
 442.4	19513
 442.9	19539
 443.5	19574
 444.0	19570
 444.5	19594
 445.1	19507
 445.6	19546
 446.1	19570
 446.7	19591
 447.2	19609
 447.7	19597
 448.3	19667
 448.8	19634
 449.3	19681
 449.9	19632
 450.4	19731
 450.9	19777
 451.5	19778
 452.0	19759
 452.6	19788
 453.1	19846
 453.6	19862
 454.2	19758
 454.7	19839
 455.2	19864
 455.8	19914
 456.3	19864
 456.8	19989
 457.4	19921
 457.9	19932
 458.5	19983
 459.0	19947
 459.5	19984
 460.1	19936
 460.6	19986
 461.1	19969
 461.7	20017
 462.2	19967
 462.7	20015
 463.3	19941
 463.8	20009
 464.4	20073
 464.9	20023
 465.4	20087
 466.0	19998
 466.5	20069
 467.0	20001
 467.6	20082
 468.1	20166
 468.7	20102
 469.2	20038
 469.7	20133
 470.3	20121
 470.8	20161
 471.3	20146
 471.9	20111
 472.4	20173
 473.0	20224
 473.5	20239
 474.0	20239
 474.6	20250
 475.1	20249
 475.6	20330
 476.2	20341
 476.7	20322
 477.3	20379
 477.8	20329
 478.3	20263
 478.9	20464
 479.4	20359
 479.9	20375
 480.5	20367
 481.0	20397
 481.6	20421
 482.1	20490
 482.6	20477
 483.2	20495
 483.7	20613
 484.2	20553
 484.8	20399
 485.3	20502
 485.9	20583
 486.4	20553
 486.9	20575
 487.5	20547
 488.0	20556
 488.6	20616
 489.1	20631
 489.6	20692
 490.2	20688
 490.7	20651
 491.2	20630
 491.8	20679
 492.3	20641
 492.9	20688
 493.4	20702
 493.9	20717
 494.5	20722
 495.0	20787
 495.6	20705
 496.1	20715
 496.6	20771
 497.2	20691
 497.7	20656
 498.2	20742
 498.8	20763
 499.3	20679
 499.9	20737
 500.4	20735
 500.9	20718
 501.5	20718
 502.0	20787
 502.6	20773
 503.1	20859
 503.6	20839
 504.2	20805
 504.7	20821
 505.2	20890
 505.8	20894
 506.3	20986
 506.9	21005
 507.4	20990
 507.9	20983
 508.5	21030
 509.0	21083
 509.6	21169
 510.1	21149
 510.6	21198
 511.2	21234
 511.7	21233
 512.2	21317
 512.8	21345
 513.3	21319
 513.9	21319
 514.4	21387
 514.9	21469
 515.5	21368
 516.0	21442
 516.6	21412
 517.1	21459
 517.6	21439
 518.2	21417
 518.7	21347
 519.3	21394
 519.8	21431
 520.3	21419
 520.9	21365
 521.4	21365
 521.9	21414
 522.5	21329
 523.0	21345
 523.6	21376
 524.1	21230
 524.6	21283
 525.2	21294
 525.7	21335
 526.3	21265
 526.8	21358
 527.3	21307
 527.9	21334
 528.4	21323
 528.9	21387
 529.5	21415
 530.0	21408
 530.6	21465
 531.1	21481
 531.6	21410
 532.2	21543
 532.7	21523
 533.3	21575
 533.8	21709
 534.3	21753
 534.9	21770
 535.4	21733
 536.0	21822
 536.5	21879
 537.0	21857
 537.6	21897
 538.1	21963
 538.6	21999
 539.2	21951
 539.7	21975
 540.3	22083
 540.8	22064
 541.3	22025
 541.9	22066
 542.4	22078
 543.0	22142
 543.5	22106
 544.0	22089
 544.6	22127
 545.1	22144
 545.6	22178
 546.2	22162
 546.7	22066
 547.3	22129
 547.8	22108
 548.3	22147
 548.9	22064
 549.4	22066
 550.0	22028
 550.5	22088
 551.0	22129
 551.6	22079
 552.1	22097
 552.6	22097
 553.2	22065
 553.7	22045
 554.3	22079
 554.8	22147
 555.3	22007
 555.9	22084
 556.4	22053
 556.9	22148
 557.5	22179
 558.0	22138
 558.6	22121
 559.1	22201
 559.6	22187
 560.2	22195
 560.7	22202
 561.3	22178
 561.8	22162
 562.3	22290
 562.9	22275
 563.4	22316
 563.9	22309
 564.5	22322
 565.0	22315
 565.6	22343
 566.1	22343
 566.6	22351
 567.2	22342
 567.7	22446
 568.2	22359
 568.8	22373
 569.3	22349
 569.9	22418
 570.4	22403
 570.9	22386
 571.5	22377
 572.0	22375
 572.5	22427
 573.1	22384
 573.6	22437
 574.1	22431
 574.7	22435
 575.2	22413
 575.8	22454
 576.3	22533
 576.8	22507
 577.4	22525
 577.9	22544
 578.4	22514
 579.0	22529
 579.5	22637
 580.1	22574
 580.6	22590
 581.1	22679
 581.7	22706
 582.2	22653
 582.7	22701
 583.3	22753
 583.8	22735
 584.3	22693
 584.9	22761
 585.4	22760
 586.0	22741
 586.5	22782
 587.0	22755
 587.6	22832
 588.1	22786
 588.6	22871
 589.2	22807
 589.7	22833
 590.2	22822
 590.8	22819
 591.3	22841
 591.9	22785
 592.4	22843
 592.9	22769
 593.5	22759
 594.0	22745
 594.5	22753
 595.1	22738
 595.6	22702
 596.1	22754
 596.7	22703
 597.2	22735
 597.7	22670
 598.3	22671
 598.8	22637
 599.3	22640
 599.9	22606
 600.4	22591
 601.0	22597
 601.5	22581
 602.0	22569
 602.6	22519
 603.1	22534
 603.6	22534
 604.2	22633
 604.7	22539
 605.2	22610
 605.8	22528
 606.3	22555
 606.8	22635
 607.4	22609
 607.9	22656
 608.4	22604
 609.0	22644
 609.5	22700
 610.0	22679
 610.6	22781
 611.1	22702
 611.6	22743
 612.2	22747
 612.7	22818
 613.2	22819
 613.8	22763
 614.3	22808
 614.8	22860
 615.4	22814
 615.9	22906
 616.4	22981
 617.0	22946
 617.5	23043
 618.0	23073
 618.6	23019
 619.1	23066
 619.6	23159
 620.2	23169
 620.7	23251
 621.2	23231
 621.8	23286
 622.3	23327
 622.8	23304
 623.4	23342
 623.9	23414
 624.4	23403
 625.0	23406
 625.5	23413
 626.0	23429
 626.6	23474
 627.1	23467
 627.6	23416
 628.2	23385
 628.7	23410
 629.2	23395
 629.8	23420
 630.3	23427
 630.8	23402
 631.4	23373
 631.9	23387
 632.4	23264
 632.9	23271
 633.5	23261
 634.0	23212
 634.5	23282
 635.1	23202
 635.6	23171
 636.1	23139
 636.7	23174
 637.2	23161
 637.7	23065
 638.3	23142
 638.8	23121
 639.3	23129
 639.8	23068
 640.4	23075
 640.9	23091
 641.4	22995
 642.0	22979
 642.5	22996
 643.0	22959
 643.6	23045
 644.1	23002
 644.6	23009
 645.1	23037
 645.7	23023
 646.2	22982
 646.7	23007
 647.3	23031
 647.8	23043
 648.3	23021
 648.9	23053
 649.4	22979
 649.9	23047
 650.4	23065
 651.0	23109
 651.5	23129
 652.0	23187
 652.6	23141
 653.1	23215
 653.6	23137
 654.1	23221
 654.7	23181
 655.2	23268
 655.7	23319
 656.3	23341
 656.8	23290
 657.3	23351
 657.8	23307
 658.4	23309
 658.9	23324
 659.4	23405
 659.9	23402
 660.5	23383
 661.0	23438
 661.5	23479
 662.1	23449
 662.6	23459
 663.1	23423
 663.6	23507
 664.2	23463
 664.7	23430
 665.2	23368
 665.7	23488
 666.3	23448
 666.8	23455
 667.3	23455
 667.8	23421
 668.4	23446
 668.9	23447
 669.4	23429
 669.9	23459
 670.5	23393
 671.0	23403
 671.5	23352
 672.0	23406
 672.6	23404
 673.1	23433
 673.6	23342
 674.1	23373
 674.7	23354
 675.2	23403
 675.7	23268
 676.2	23268
 676.8	23323
 677.3	23331
 677.8	23256
 678.3	23362
 678.9	23302
 679.4	23240
 679.9	23293
 680.4	23297
 681.0	23255
 681.5	23291
 682.0	23257
 682.5	23286
 683.1	23188
 683.6	23239
 684.1	23175
 684.6	23279
 685.1	23213
 685.7	23229
 686.2	23203
 686.7	23167
 687.2	23161
 687.8	23227
 688.3	23164
 688.8	23184
 689.3	23134
 689.8	23162
 690.4	23155
 690.9	23159
 691.4	23169
 691.9	23193
 692.4	23152
 693.0	23224
 693.5	23194
 694.0	23182
 694.5	23169
 695.1	23149
 695.6	23116
 696.1	23183
 696.6	23171
 697.1	23181
 697.7	23216
 698.2	23150
 698.7	23173
 699.2	23131
 699.7	23139
 700.3	23112
 700.8	23093
 701.3	23187
 701.8	23150
 702.3	23103
 702.8	23105
 703.4	23084
 703.9	23079
 704.4	23070
 704.9	23032
 705.4	23033
 706.0	23119
 706.5	23105
 707.0	23019
 707.5	23002
 708.0	23028
 708.5	22972
 709.1	23040
 709.6	22998
 710.1	22958
 710.6	22936
 711.1	22931
 711.7	22953
 712.2	22947
 712.7	22949
 713.2	22925
 713.7	22929
 714.2	22884
 714.8	22963
 715.3	22911
 715.8	22913
 716.3	22925
 716.8	22839
 717.3	22824
 717.8	22929
 718.4	22937
 718.9	22871
 719.4	22959
 719.9	22866
 720.4	22916
 720.9	22918
 721.4	22917
 722.0	22942
 722.5	22926
 723.0	22917
 723.5	22923
 724.0	22890
 724.5	22889
 725.0	22912
 725.6	22845
 726.1	22893
 726.6	23014
 727.1	22950
 727.6	22989
 728.1	23009
 728.6	22966
 729.1	22955
 729.7	22947
 730.2	22972
 730.7	22998
 731.2	23029
 731.7	23018
 732.2	23023
 732.7	23001
 733.2	23051
 733.8	23021
 734.3	23043
 734.8	23010
 735.3	23043
 735.8	23023
 736.3	23001
 736.8	23044
 737.3	23084
 737.8	23035
 738.4	23037
 738.9	22990
 739.4	23075
 739.9	23055
 740.4	23072
 740.9	23054
 741.4	23048
 741.9	23045
 742.4	23063
 742.9	23044
 743.4	23127
 744.0	23041
 744.5	23041
 745.0	23046
 745.5	23121
 746.0	23086
 746.5	23095
 747.0	23032
 747.5	23024
 748.0	22987
 748.5	23005
 749.0	23017
 749.5	23097
 750.0	22929
 750.5	22985
 751.1	22985
 751.6	22978
 752.1	22963
 752.6	22929
 753.1	22952
 753.6	22883
 754.1	22846
 754.6	22889
 755.1	22839
 755.6	22836
 756.1	22755
 756.6	22847
 757.1	22805
 757.6	22785
 758.1	22744
 758.6	22749
 759.1	22671
 759.6	22703
 760.1	22650
 760.7	22605
 761.2	22670
 761.7	22605
 762.2	22590
 762.7	22629
 763.2	22486
 763.7	22563
 764.2	22491
 764.7	22486
 765.2	22512
 765.7	22470
 766.2	22421
 766.7	22464
 767.2	22400
 767.7	22401
 768.2	22371
 768.7	22328
 769.2	22318
 769.7	22352
 770.2	22316
 770.7	22315
 771.2	22287
 771.7	22257
 772.2	22262
 772.7	22300
 773.2	22274
 773.7	22224
 774.2	22173
 774.7	22213
 775.2	22193
 775.7	22173
 776.2	22160
 776.7	22183
 777.2	22107
 777.7	22179
 778.2	22157
 778.7	22183
 779.2	22194
 779.7	22226
 780.2	22065
 780.7	22127
 781.2	22127
 781.7	22196
 782.2	22118
 782.6	22190
 783.1	22189
 783.6	22148
 784.1	22114
 784.6	22104
 785.1	22108
 785.6	22103
 786.1	22131
 786.6	22144
 787.1	22089
 787.6	22086
 788.1	22078
 788.6	22058
 789.1	22053
 789.6	22087
 790.1	22097
 790.6	22091
 791.1	21993
 791.6	21993
 792.0	22007
 792.5	22038
 793.0	22018
 793.5	22003
 794.0	21936
 794.5	22019
 795.0	21995
 795.5	21963
 796.0	21968
 796.5	21913
 797.0	21925
 797.5	21960
 798.0	21817
 798.4	21839
 798.9	21821
 799.4	21822
 799.9	21829
 800.4	21687
 800.9	21776
 801.4	21827
 801.9	21779
 802.4	21695
 802.9	21752
 803.3	21735
 803.8	21695
 804.3	21637
 804.8	21687
 805.3	21621
 805.8	21605
 806.3	21591
 806.8	21569
 807.2	21553
 807.7	21514
 808.2	21526
 808.7	21446
 809.2	21442
 809.7	21368
 810.2	21423
 810.7	21352
 811.1	21361
 811.6	21351
 812.1	21299
 812.6	21253
 813.1	21297
 813.6	21303
 814.1	21273
 814.5	21221
 815.0	21233
 815.5	21188
 816.0	21140
 816.5	21200
 817.0	21141
 817.4	21120
 817.9	21145
 818.4	21067
 818.9	21142
 819.4	21095
 819.9	21067
 820.3	21033
 820.8	21025
 821.3	21023
 821.8	21034
 822.3	20971
 822.7	20945
 823.2	21000
 823.7	20951
 824.2	20950
 824.7	20915
 825.2	20931
 825.6	20909
 826.1	20896
 826.6	20939
 827.1	20923
 827.6	20915
 828.0	20845
 828.5	20823
 829.0	20855
 829.5	20796
 829.9	20799
 830.4	20847
 830.9	20825
 831.4	20855
 831.9	20803
 832.3	20883
 832.8	20823
 833.3	20812
 833.8	20890
 834.2	20879
 834.7	20725
 835.2	20816
 835.7	20817
 836.1	20802
 836.6	20783
 837.1	20784
 837.6	20787
 838.0	20825
 838.5	20846
 839.0	20844
 839.5	20827
 839.9	20750
 840.4	20754
 840.9	20717
 841.4	20753
 841.8	20777
 842.3	20785
 842.8	20805
 843.3	20800
 843.7	20697
 844.2	20679
 844.7	20766
 845.1	20735
 845.6	20653
 846.1	20675
 846.6	20703
 847.0	20604
 847.5	20651
 848.0	20633
 848.4	20670
 848.9	20633
 849.4	20615
 849.8	20629
 850.3	20624
 850.8	20665
 851.3	20621
 851.7	20613
 852.2	20615
 852.7	20601
 853.1	20575
 853.6	20529
 854.1	20561
 854.5	20525
 855.0	20511
 855.5	20501
 855.9	20555
 856.4	20542
 856.9	20455
 857.3	20504
 857.8	20471
 858.3	20503
 858.7	20456
 859.2	20473
 859.7	20461
 860.1	20511
 860.6	20489
 861.1	20422
 861.5	20461
 862.0	20470
 862.4	20437
 862.9	20399
 863.4	20432
 863.8	20431
 864.3	20425
 864.8	20349
 865.2	20391
 865.7	20404
 866.1	20413
 866.6	20331
 867.1	20409
 867.5	20389
 868.0	20355
 868.5	20310
 868.9	20315
 869.4	20407
 869.8	20359
 870.3	20317
 870.8	20378
 871.2	20335
 871.7	20323
 872.1	20271
 872.6	20319
 873.0	20298
 873.5	20375
 874.0	20350
 874.4	20241
 874.9	20263
 875.3	20214
 875.8	20107
 876.2	19899
 876.7	19749
 877.2	19425
 877.6	19033
 878.1	18651
