#xlabel Wavelength (nm)
#ylabel Spectrometer Array Counts
#title Exposure time is 10000 ms
## lambda	counts
 349.8	17373
 350.3	17638
 350.8	17895
 351.3	18096
 351.9	18209
 352.4	18329
 352.9	18408
 353.4	18377
 354.0	18375
 354.5	18411
 355.0	18412
 355.5	18426
 356.0	18379
 356.6	18343
 357.1	18388
 357.6	18365
 358.1	18389
 358.7	18330
 359.2	18335
 359.7	18354
 360.2	18391
 360.8	18357
 361.3	18447
 361.8	18393
 362.3	18419
 362.9	18378
 363.4	18453
 363.9	18450
 364.4	18477
 364.9	18385
 365.5	18461
 366.0	18444
 366.5	18398
 367.0	18442
 367.6	18465
 368.1	18467
 368.6	18401
 369.1	18456
 369.7	18505
 370.2	18425
 370.7	18426
 371.2	18467
 371.8	18519
 372.3	18435
 372.8	18515
 373.3	18531
 373.9	18467
 374.4	18489
 374.9	18539
 375.5	18425
 376.0	18553
 376.5	18512
 377.0	18536
 377.6	18476
 378.1	18551
 378.6	18491
 379.1	18494
 379.7	18471
 380.2	18544
 380.7	18544
 381.2	18503
 381.8	18493
 382.3	18530
 382.8	18513
 383.4	18561
 383.9	18506
 384.4	18658
 384.9	18570
 385.5	18584
 386.0	18589
 386.5	18659
 387.1	18585
 387.6	18608
 388.1	18607
 388.6	18622
 389.2	18605
 389.7	18631
 390.2	18607
 390.8	18693
 391.3	18662
 391.8	18661
 392.3	18646
 392.9	18640
 393.4	18627
 393.9	18699
 394.5	18694
 395.0	18653
 395.5	18667
 396.0	18673
 396.6	18636
 397.1	18732
 397.6	18725
 398.2	18727
 398.7	18727
 399.2	18820
 399.8	18694
 400.3	18756
 400.8	18802
 401.3	18772
 401.9	18787
 402.4	18804
 402.9	18793
 403.5	18818
 404.0	18807
 404.5	18757
 405.1	18762
 405.6	18859
 406.1	18832
 406.7	18838
 407.2	18845
 407.7	18929
 408.2	18917
 408.8	18915
 409.3	18949
 409.8	18994
 410.4	18959
 410.9	18961
 411.4	18909
 412.0	18971
 412.5	19017
 413.0	18971
 413.6	19013
 414.1	18973
 414.6	19007
 415.2	19051
 415.7	18993
 416.2	19037
 416.8	19018
 417.3	19005
 417.8	19028
 418.4	19117
 418.9	19045
 419.4	19183
 420.0	19075
 420.5	19138
 421.0	19083
 421.5	19163
 422.1	19144
 422.6	19199
 423.1	19222
 423.7	19185
 424.2	19174
 424.7	19209
 425.3	19181
 425.8	19202
 426.3	19190
 426.9	19254
 427.4	19191
 427.9	19301
 428.5	19247
 429.0	19282
 429.6	19242
 430.1	19327
 430.6	19318
 431.2	19261
 431.7	19363
 432.2	19336
 432.8	19315
 433.3	19423
 433.8	19430
 434.4	19401
 434.9	19419
 435.4	19473
 436.0	19451
 436.5	19450
 437.0	19526
 437.6	19505
 438.1	19553
 438.6	19557
 439.2	19585
 439.7	19575
 440.2	19526
 440.8	19547
 441.3	19550
 441.8	19557
 442.4	19529
 442.9	19549
 443.5	19581
 444.0	19581
 444.5	19610
 445.1	19521
 445.6	19553
 446.1	19581
 446.7	19601
 447.2	19619
 447.7	19607
 448.3	19684
 448.8	19647
 449.3	19689
 449.9	19640
 450.4	19741
 450.9	19789
 451.5	19797
 452.0	19769
 452.6	19793
 453.1	19855
 453.6	19871
 454.2	19773
 454.7	19852
 455.2	19877
 455.8	19928
 456.3	19875
 456.8	20006
 457.4	19934
 457.9	19944
 458.5	19995
 459.0	19959
 459.5	19995
 460.1	19952
 460.6	19997
 461.1	19983
 461.7	20032
 462.2	19983
 462.7	20023
 463.3	19948
 463.8	20017
 464.4	20083
 464.9	20033
 465.4	20104
 466.0	20005
 466.5	20082
 467.0	20016
 467.6	20089
 468.1	20178
 468.7	20114
 469.2	20049
 469.7	20149
 470.3	20131
 470.8	20172
 471.3	20161
 471.9	20128
 472.4	20183
 473.0	20230
 473.5	20251
 474.0	20250
 474.6	20261
 475.1	20262
 475.6	20335
 476.2	20347
 476.7	20329
 477.3	20391
 477.8	20338
 478.3	20272
 478.9	20479
 479.4	20371
 479.9	20383
 480.5	20379
 481.0	20410
 481.6	20433
 482.1	20497
 482.6	20485
 483.2	20505
 483.7	20621
 484.2	20565
 484.8	20414
 485.3	20515
 485.9	20602
 486.4	20564
 486.9	20588
 487.5	20557
 488.0	20564
 488.6	20630
 489.1	20639
 489.6	20698
 490.2	20698
 490.7	20661
 491.2	20643
 491.8	20699
 492.3	20653
 492.9	20705
 493.4	20713
 493.9	20730
 494.5	20735
 495.0	20794
 495.6	20714
 496.1	20725
 496.6	20785
 497.2	20701
 497.7	20667
 498.2	20757
 498.8	20773
 499.3	20692
 499.9	20741
 500.4	20745
 500.9	20730
 501.5	20722
 502.0	20801
 502.6	20783
 503.1	20872
 503.6	20845
 504.2	20812
 504.7	20830
 505.2	20902
 505.8	20905
 506.3	21000
 506.9	21018
 507.4	20997
 507.9	20987
 508.5	21041
 509.0	21095
 509.6	21176
 510.1	21155
 510.6	21209
 511.2	21245
 511.7	21244
 512.2	21321
 512.8	21362
 513.3	21333
 513.9	21333
 514.4	21395
 514.9	21473
 515.5	21381
 516.0	21457
 516.6	21428
 517.1	21474
 517.6	21449
 518.2	21423
 518.7	21356
 519.3	21409
 519.8	21439
 520.3	21427
 520.9	21374
 521.4	21376
 521.9	21423
 522.5	21339
 523.0	21353
 523.6	21386
 524.1	21236
 524.6	21283
 525.2	21306
 525.7	21345
 526.3	21270
 526.8	21365
 527.3	21313
 527.9	21342
 528.4	21329
 528.9	21399
 529.5	21425
 530.0	21415
 530.6	21476
 531.1	21491
 531.6	21420
 532.2	21550
 532.7	21531
 533.3	21581
 533.8	21714
 534.3	21765
 534.9	21783
 535.4	21742
 536.0	21832
 536.5	21891
 537.0	21871
 537.6	21909
 538.1	21975
 538.6	22008
 539.2	21965
 539.7	21991
 540.3	22094
 540.8	22075
 541.3	22035
 541.9	22081
 542.4	22089
 543.0	22153
 543.5	22122
 544.0	22099
 544.6	22139
 545.1	22157
 545.6	22186
 546.2	22169
 546.7	22079
 547.3	22134
 547.8	22110
 548.3	22153
 548.9	22075
 549.4	22071
 550.0	22039
 550.5	22099
 551.0	22144
 551.6	22084
 552.1	22105
 552.6	22101
 553.2	22071
 553.7	22049
 554.3	22087
 554.8	22157
 555.3	22018
 555.9	22089
 556.4	22056
 556.9	22153
 557.5	22188
 558.0	22143
 558.6	22127
 559.1	22209
 559.6	22192
 560.2	22200
 560.7	22211
 561.3	22187
 561.8	22171
 562.3	22303
 562.9	22289
 563.4	22323
 563.9	22321
 564.5	22333
 565.0	22327
 565.6	22352
 566.1	22351
 566.6	22359
 567.2	22350
 567.7	22451
 568.2	22368
 568.8	22385
 569.3	22360
 569.9	22431
 570.4	22411
 570.9	22391
 571.5	22390
 572.0	22377
 572.5	22441
 573.1	22385
 573.6	22445
 574.1	22435
 574.7	22443
 575.2	22419
 575.8	22465
 576.3	22539
 576.8	22515
 577.4	22527
 577.9	22552
 578.4	22524
 579.0	22537
 579.5	22647
 580.1	22581
 580.6	22601
 581.1	22685
 581.7	22715
 582.2	22660
 582.7	22710
 583.3	22762
 583.8	22745
 584.3	22694
 584.9	22763
 585.4	22763
 586.0	22754
 586.5	22793
 587.0	22762
 587.6	22844
 588.1	22797
 588.6	22873
 589.2	22818
 589.7	22841
 590.2	22831
 590.8	22830
 591.3	22846
 591.9	22792
 592.4	22847
 592.9	22782
 593.5	22763
 594.0	22757
 594.5	22764
 595.1	22738
 595.6	22707
 596.1	22754
 596.7	22712
 597.2	22746
 597.7	22673
 598.3	22675
 598.8	22650
 599.3	22647
 599.9	22611
 600.4	22599
 601.0	22602
 601.5	22582
 602.0	22577
 602.6	22523
 603.1	22535
 603.6	22538
 604.2	22635
 604.7	22544
 605.2	22619
 605.8	22532
 606.3	22563
 606.8	22642
 607.4	22619
 607.9	22663
 608.4	22612
 609.0	22654
 609.5	22705
 610.0	22688
 610.6	22789
 611.1	22705
 611.6	22751
 612.2	22760
 612.7	22824
 613.2	22829
 613.8	22769
 614.3	22811
 614.8	22869
 615.4	22819
 615.9	22913
 616.4	22987
 617.0	22951
 617.5	23046
 618.0	23077
 618.6	23025
 619.1	23073
 619.6	23160
 620.2	23181
 620.7	23263
 621.2	23239
 621.8	23294
 622.3	23331
 622.8	23310
 623.4	23356
 623.9	23425
 624.4	23405
 625.0	23415
 625.5	23422
 626.0	23437
 626.6	23484
 627.1	23478
 627.6	23423
 628.2	23388
 628.7	23426
 629.2	23406
 629.8	23428
 630.3	23439
 630.8	23412
 631.4	23384
 631.9	23391
 632.4	23278
 632.9	23285
 633.5	23272
 634.0	23222
 634.5	23285
 635.1	23211
 635.6	23179
 636.1	23147
 636.7	23182
 637.2	23167
 637.7	23066
 638.3	23152
 638.8	23135
 639.3	23141
 639.8	23071
 640.4	23079
 640.9	23099
 641.4	23001
 642.0	22987
 642.5	23003
 643.0	22973
 643.6	23054
 644.1	23007
 644.6	23019
 645.1	23042
 645.7	23029
 646.2	22991
 646.7	23007
 647.3	23034
 647.8	23052
 648.3	23028
 648.9	23062
 649.4	22986
 649.9	23053
 650.4	23071
 651.0	23117
 651.5	23137
 652.0	23190
 652.6	23143
 653.1	23225
 653.6	23151
 654.1	23229
 654.7	23191
 655.2	23281
 655.7	23324
 656.3	23347
 656.8	23295
 657.3	23358
 657.8	23320
 658.4	23322
 658.9	23335
 659.4	23409
 659.9	23414
 660.5	23391
 661.0	23447
 661.5	23491
 662.1	23459
 662.6	23473
 663.1	23433
 663.6	23519
 664.2	23471
 664.7	23445
 665.2	23379
 665.7	23497
 666.3	23463
 666.8	23462
 667.3	23472
 667.8	23431
 668.4	23455
 668.9	23459
 669.4	23437
 669.9	23466
 670.5	23400
 671.0	23416
 671.5	23362
 672.0	23417
 672.6	23418
 673.1	23442
 673.6	23345
 674.1	23384
 674.7	23368
 675.2	23416
 675.7	23273
 676.2	23281
 676.8	23329
 677.3	23337
 677.8	23267
 678.3	23374
 678.9	23307
 679.4	23249
 679.9	23305
 680.4	23309
 681.0	23262
 681.5	23299
 682.0	23263
 682.5	23293
 683.1	23203
 683.6	23244
 684.1	23184
 684.6	23283
 685.1	23223
 685.7	23239
 686.2	23212
 686.7	23175
 687.2	23168
 687.8	23234
 688.3	23171
 688.8	23198
 689.3	23142
 689.8	23169
 690.4	23166
 690.9	23172
 691.4	23169
 691.9	23199
 692.4	23164
 693.0	23231
 693.5	23199
 694.0	23188
 694.5	23181
 695.1	23155
 695.6	23121
 696.1	23193
 696.6	23179
 697.1	23199
 697.7	23224
 698.2	23154
 698.7	23181
 699.2	23144
 699.7	23147
 700.3	23125
 700.8	23105
 701.3	23205
 701.8	23161
 702.3	23107
 702.8	23113
 703.4	23091
 703.9	23091
 704.4	23078
 704.9	23044
 705.4	23051
 706.0	23131
 706.5	23113
 707.0	23025
 707.5	23012
 708.0	23037
 708.5	22984
 709.1	23042
 709.6	23005
 710.1	22963
 710.6	22942
 711.1	22939
 711.7	22963
 712.2	22954
 712.7	22957
 713.2	22934
 713.7	22936
 714.2	22891
 714.8	22971
 715.3	22919
 715.8	22922
 716.3	22930
 716.8	22842
 717.3	22831
 717.8	22937
 718.4	22946
 718.9	22884
 719.4	22965
 719.9	22872
 720.4	22922
 720.9	22933
 721.4	22926
 722.0	22948
 722.5	22934
 723.0	22927
 723.5	22935
 724.0	22910
 724.5	22897
 725.0	22921
 725.6	22854
 726.1	22906
 726.6	23018
 727.1	22961
 727.6	22995
 728.1	23022
 728.6	22974
 729.1	22971
 729.7	22953
 730.2	22983
 730.7	23012
 731.2	23039
 731.7	23029
 732.2	23037
 732.7	23021
 733.2	23059
 733.8	23028
 734.3	23050
 734.8	23023
 735.3	23053
 735.8	23044
 736.3	23017
 736.8	23054
 737.3	23095
 737.8	23049
 738.4	23045
 738.9	22995
 739.4	23087
 739.9	23067
 740.4	23083
 740.9	23068
 741.4	23062
 741.9	23059
 742.4	23077
 742.9	23051
 743.4	23135
 744.0	23058
 744.5	23052
 745.0	23063
 745.5	23129
 746.0	23103
 746.5	23105
 747.0	23048
 747.5	23030
 748.0	22998
 748.5	23013
 749.0	23022
 749.5	23115
 750.0	22947
 750.5	22993
 751.1	22996
 751.6	22993
 752.1	22973
 752.6	22939
 753.1	22965
 753.6	22897
 754.1	22859
 754.6	22904
 755.1	22855
 755.6	22856
 756.1	22766
 756.6	22863
 757.1	22823
 757.6	22800
 758.1	22753
 758.6	22759
 759.1	22683
 759.6	22716
 760.1	22657
 760.7	22608
 761.2	22679
 761.7	22618
 762.2	22595
 762.7	22639
 763.2	22493
 763.7	22576
 764.2	22505
 764.7	22497
 765.2	22521
 765.7	22483
 766.2	22433
 766.7	22469
 767.2	22417
 767.7	22411
 768.2	22384
 768.7	22345
 769.2	22329
 769.7	22367
 770.2	22334
 770.7	22324
 771.2	22297
 771.7	22264
 772.2	22275
 772.7	22316
 773.2	22289
 773.7	22231
 774.2	22180
 774.7	22225
 775.2	22209
 775.7	22183
 776.2	22168
 776.7	22191
 777.2	22119
 777.7	22187
 778.2	22171
 778.7	22204
 779.2	22208
 779.7	22234
 780.2	22077
 780.7	22142
 781.2	22141
 781.7	22207
 782.2	22126
 782.6	22199
 783.1	22206
 783.6	22165
 784.1	22129
 784.6	22115
 785.1	22123
 785.6	22115
 786.1	22144
 786.6	22156
 787.1	22099
 787.6	22102
 788.1	22090
 788.6	22072
 789.1	22065
 789.6	22098
 790.1	22111
 790.6	22104
 791.1	22006
 791.6	22004
 792.0	22023
 792.5	22052
 793.0	22027
 793.5	22023
 794.0	21955
 794.5	22033
 795.0	22006
 795.5	21979
 796.0	21979
 796.5	21927
 797.0	21937
 797.5	21975
 798.0	21823
 798.4	21858
 798.9	21835
 799.4	21844
 799.9	21842
 800.4	21700
 800.9	21788
 801.4	21843
 801.9	21788
 802.4	21704
 802.9	21761
 803.3	21747
 803.8	21706
 804.3	21645
 804.8	21697
 805.3	21639
 805.8	21619
 806.3	21607
 806.8	21578
 807.2	21567
 807.7	21530
 808.2	21541
 808.7	21463
 809.2	21453
 809.7	21385
 810.2	21437
 810.7	21369
 811.1	21373
 811.6	21363
 812.1	21311
 812.6	21270
 813.1	21305
 813.6	21313
 814.1	21282
 814.5	21238
 815.0	21247
 815.5	21202
 816.0	21151
 816.5	21209
 817.0	21155
 817.4	21132
 817.9	21159
 818.4	21083
 818.9	21156
 819.4	21107
 819.9	21079
 820.3	21041
 820.8	21039
 821.3	21038
 821.8	21057
 822.3	20984
 822.7	20960
 823.2	21014
 823.7	20965
 824.2	20963
 824.7	20936
 825.2	20949
 825.6	20922
 826.1	20913
 826.6	20959
 827.1	20935
 827.6	20924
 828.0	20860
 828.5	20837
 829.0	20872
 829.5	20811
 829.9	20812
 830.4	20865
 830.9	20847
 831.4	20867
 831.9	20820
 832.3	20898
 832.8	20836
 833.3	20827
 833.8	20905
 834.2	20892
 834.7	20741
 835.2	20831
 835.7	20827
 836.1	20814
 836.6	20800
 837.1	20801
 837.6	20808
 838.0	20841
 838.5	20860
 839.0	20857
 839.5	20846
 839.9	20766
 840.4	20770
 840.9	20736
 841.4	20771
 841.8	20795
 842.3	20798
 842.8	20821
 843.3	20812
 843.7	20713
 844.2	20694
 844.7	20782
 845.1	20745
 845.6	20667
 846.1	20686
 846.6	20719
 847.0	20617
 847.5	20664
 848.0	20644
 848.4	20682
 848.9	20647
 849.4	20620
 849.8	20640
 850.3	20635
 850.8	20672
 851.3	20639
 851.7	20633
 852.2	20631
 852.7	20615
 853.1	20591
 853.6	20545
 854.1	20577
 854.5	20542
 855.0	20519
 855.5	20518
 855.9	20573
 856.4	20553
 856.9	20468
 857.3	20517
 857.8	20488
 858.3	20522
 858.7	20476
 859.2	20483
 859.7	20479
 860.1	20530
 860.6	20500
 861.1	20439
 861.5	20482
 862.0	20486
 862.4	20456
 862.9	20415
 863.4	20453
 863.8	20450
 864.3	20445
 864.8	20363
 865.2	20409
 865.7	20424
 866.1	20432
 866.6	20350
 867.1	20423
 867.5	20401
 868.0	20377
 868.5	20326
 868.9	20326
 869.4	20418
 869.8	20368
 870.3	20322
 870.8	20387
 871.2	20344
 871.7	20333
 872.1	20282
 872.6	20341
 873.0	20321
 873.5	20410
 874.0	20403
 874.4	20301
 874.9	20341
 875.3	20303
 875.8	20203
 876.2	19994
 876.7	19833
 877.2	19491
 877.6	19067
 878.1	18656
