#xlabel Wavelength (nm)
#ylabel Spectrometer Array Counts
#title Exposure time is 10000 ms
## lambda	counts
 349.8	17485
 350.3	17749
 350.8	18000
 351.3	18193
 351.9	18305
 352.4	18428
 352.9	18503
 353.4	18475
 354.0	18476
 354.5	18521
 355.0	18527
 355.5	18545
 356.0	18502
 356.6	18474
 357.1	18523
 357.6	18503
 358.1	18532
 358.7	18476
 359.2	18490
 359.7	18512
 360.2	18553
 360.8	18519
 361.3	18611
 361.8	18567
 362.3	18593
 362.9	18558
 363.4	18638
 363.9	18637
 364.4	18665
 364.9	18578
 365.5	18655
 366.0	18637
 366.5	18596
 367.0	18645
 367.6	18670
 368.1	18676
 368.6	18612
 369.1	18677
 369.7	18735
 370.2	18657
 370.7	18659
 371.2	18706
 371.8	18763
 372.3	18689
 372.8	18773
 373.3	18793
 373.9	18739
 374.4	18763
 374.9	18816
 375.5	18713
 376.0	18845
 376.5	18818
 377.0	18844
 377.6	18793
 378.1	18878
 378.6	18823
 379.1	18829
 379.7	18820
 380.2	18901
 380.7	18911
 381.2	18876
 381.8	18873
 382.3	18924
 382.8	18909
 383.4	18958
 383.9	18911
 384.4	19072
 384.9	18988
 385.5	19009
 386.0	19012
 386.5	19091
 387.1	19026
 387.6	19051
 388.1	19059
 388.6	19085
 389.2	19077
 389.7	19110
 390.2	19098
 390.8	19196
 391.3	19176
 391.8	19189
 392.3	19184
 392.9	19201
 393.4	19204
 393.9	19286
 394.5	19302
 395.0	19261
 395.5	19297
 396.0	19306
 396.6	19286
 397.1	19391
 397.6	19389
 398.2	19397
 398.7	19407
 399.2	19504
 399.8	19383
 400.3	19455
 400.8	19505
 401.3	19484
 401.9	19506
 402.4	19529
 402.9	19531
 403.5	19567
 404.0	19567
 404.5	19533
 405.1	19549
 405.6	19660
 406.1	19651
 406.7	19671
 407.2	19692
 407.7	19791
 408.2	19799
 408.8	19815
 409.3	19861
 409.8	19924
 410.4	19900
 410.9	19927
 411.4	19882
 412.0	19963
 412.5	20024
 413.0	19992
 413.6	20049
 414.1	20023
 414.6	20063
 415.2	20123
 415.7	20076
 416.2	20138
 416.8	20135
 417.3	20134
 417.8	20170
 418.4	20273
 418.9	20223
 419.4	20363
 420.0	20270
 420.5	20347
 421.0	20300
 421.5	20399
 422.1	20379
 422.6	20453
 423.1	20489
 423.7	20462
 424.2	20461
 424.7	20507
 425.3	20494
 425.8	20530
 426.3	20521
 426.9	20598
 427.4	20547
 427.9	20671
 428.5	20630
 429.0	20683
 429.6	20658
 430.1	20765
 430.6	20791
 431.2	20761
 431.7	20886
 432.2	20885
 432.8	20889
 433.3	21028
 433.8	21061
 434.4	21064
 434.9	21110
 435.4	21187
 436.0	21193
 436.5	21214
 437.0	21305
 437.6	21299
 438.1	21369
 438.6	21387
 439.2	21428
 439.7	21424
 440.2	21379
 440.8	21410
 441.3	21414
 441.8	21433
 442.4	21404
 442.9	21427
 443.5	21463
 444.0	21466
 444.5	21495
 445.1	21415
 445.6	21459
 446.1	21508
 446.7	21541
 447.2	21575
 447.7	21591
 448.3	21687
 448.8	21679
 449.3	21753
 449.9	21744
 450.4	21882
 450.9	21953
 451.5	22003
 452.0	22025
 452.6	22086
 453.1	22186
 453.6	22244
 454.2	22181
 454.7	22290
 455.2	22351
 455.8	22431
 456.3	22411
 456.8	22552
 457.4	22506
 457.9	22536
 458.5	22592
 459.0	22566
 459.5	22613
 460.1	22577
 460.6	22628
 461.1	22619
 461.7	22667
 462.2	22624
 462.7	22663
 463.3	22602
 463.8	22671
 464.4	22747
 464.9	22707
 465.4	22784
 466.0	22711
 466.5	22798
 467.0	22759
 467.6	22847
 468.1	22956
 468.7	22926
 469.2	22883
 469.7	23012
 470.3	23025
 470.8	23097
 471.3	23108
 471.9	23106
 472.4	23193
 473.0	23263
 473.5	23318
 474.0	23342
 474.6	23377
 475.1	23411
 475.6	23513
 476.2	23545
 476.7	23544
 477.3	23625
 477.8	23600
 478.3	23552
 478.9	23779
 479.4	23697
 479.9	23737
 480.5	23755
 481.0	23810
 481.6	23859
 482.1	23959
 482.6	23974
 483.2	24023
 483.7	24159
 484.2	24135
 484.8	24011
 485.3	24137
 485.9	24239
 486.4	24238
 486.9	24289
 487.5	24276
 488.0	24315
 488.6	24399
 489.1	24439
 489.6	24511
 490.2	24531
 490.7	24513
 491.2	24503
 491.8	24571
 492.3	24536
 492.9	24597
 493.4	24616
 493.9	24640
 494.5	24641
 495.0	24697
 495.6	24620
 496.1	24633
 496.6	24683
 497.2	24601
 497.7	24575
 498.2	24652
 498.8	24662
 499.3	24597
 499.9	24650
 500.4	24654
 500.9	24657
 501.5	24673
 502.0	24767
 502.6	24780
 503.1	24901
 503.6	24910
 504.2	24914
 504.7	24973
 505.2	25081
 505.8	25124
 506.3	25274
 506.9	25352
 507.4	25393
 507.9	25435
 508.5	25538
 509.0	25652
 509.6	25798
 510.1	25826
 510.6	25930
 511.2	26009
 511.7	26073
 512.2	26186
 512.8	26269
 513.3	26285
 513.9	26313
 514.4	26406
 514.9	26509
 515.5	26430
 516.0	26513
 516.6	26481
 517.1	26525
 517.6	26493
 518.2	26461
 518.7	26375
 519.3	26415
 519.8	26412
 520.3	26380
 520.9	26313
 521.4	26291
 521.9	26317
 522.5	26202
 523.0	26193
 523.6	26218
 524.1	26061
 524.6	26102
 525.2	26111
 525.7	26161
 526.3	26111
 526.8	26210
 527.3	26174
 527.9	26222
 528.4	26238
 528.9	26329
 529.5	26387
 530.0	26414
 530.6	26521
 531.1	26574
 531.6	26553
 532.2	26723
 532.7	26759
 533.3	26866
 533.8	27049
 534.3	27163
 534.9	27230
 535.4	27260
 536.0	27400
 536.5	27508
 537.0	27551
 537.6	27637
 538.1	27746
 538.6	27830
 539.2	27828
 539.7	27903
 540.3	28038
 540.8	28047
 541.3	28037
 541.9	28109
 542.4	28127
 543.0	28212
 543.5	28189
 544.0	28177
 544.6	28216
 545.1	28236
 545.6	28267
 546.2	28251
 546.7	28153
 547.3	28212
 547.8	28186
 548.3	28220
 548.9	28125
 549.4	28118
 550.0	28081
 550.5	28137
 551.0	28166
 551.6	28106
 552.1	28119
 552.6	28123
 553.2	28076
 553.7	28056
 554.3	28094
 554.8	28169
 555.3	28035
 555.9	28113
 556.4	28102
 556.9	28221
 557.5	28265
 558.0	28249
 558.6	28250
 559.1	28341
 559.6	28347
 560.2	28394
 560.7	28421
 561.3	28425
 561.8	28434
 562.3	28583
 562.9	28586
 563.4	28658
 563.9	28661
 564.5	28701
 565.0	28714
 565.6	28760
 566.1	28772
 566.6	28788
 567.2	28793
 567.7	28895
 568.2	28837
 568.8	28851
 569.3	28845
 569.9	28911
 570.4	28898
 570.9	28890
 571.5	28898
 572.0	28906
 572.5	28972
 573.1	28937
 573.6	29013
 574.1	29020
 574.7	29042
 575.2	29039
 575.8	29114
 576.3	29208
 576.8	29200
 577.4	29244
 577.9	29291
 578.4	29301
 579.0	29342
 579.5	29485
 580.1	29442
 580.6	29507
 581.1	29618
 581.7	29684
 582.2	29668
 582.7	29736
 583.3	29818
 583.8	29826
 584.3	29814
 584.9	29902
 585.4	29924
 586.0	29941
 586.5	29997
 587.0	30001
 587.6	30093
 588.1	30072
 588.6	30147
 589.2	30113
 589.7	30144
 590.2	30145
 590.8	30133
 591.3	30158
 591.9	30095
 592.4	30139
 592.9	30063
 593.5	30035
 594.0	30005
 594.5	29995
 595.1	29939
 595.6	29876
 596.1	29903
 596.7	29841
 597.2	29849
 597.7	29760
 598.3	29751
 598.8	29701
 599.3	29671
 599.9	29601
 600.4	29571
 601.0	29565
 601.5	29535
 602.0	29503
 602.6	29457
 603.1	29477
 603.6	29475
 604.2	29563
 604.7	29497
 605.2	29570
 605.8	29500
 606.3	29544
 606.8	29626
 607.4	29637
 607.9	29712
 608.4	29686
 609.0	29759
 609.5	29825
 610.0	29838
 610.6	29954
 611.1	29912
 611.6	30005
 612.2	30041
 612.7	30135
 613.2	30178
 613.8	30165
 614.3	30255
 614.8	30339
 615.4	30345
 615.9	30493
 616.4	30613
 617.0	30620
 617.5	30754
 618.0	30843
 618.6	30866
 619.1	30970
 619.6	31107
 620.2	31205
 620.7	31349
 621.2	31395
 621.8	31498
 622.3	31592
 622.8	31632
 623.4	31709
 623.9	31821
 624.4	31848
 625.0	31880
 625.5	31896
 626.0	31926
 626.6	31989
 627.1	31969
 627.6	31919
 628.2	31897
 628.7	31937
 629.2	31915
 629.8	31915
 630.3	31892
 630.8	31852
 631.4	31785
 631.9	31760
 632.4	31610
 632.9	31581
 633.5	31533
 634.0	31447
 634.5	31449
 635.1	31349
 635.6	31299
 636.1	31223
 636.7	31191
 637.2	31147
 637.7	31015
 638.3	31063
 638.8	31007
 639.3	30987
 639.8	30893
 640.4	30881
 640.9	30872
 641.4	30764
 642.0	30715
 642.5	30711
 643.0	30683
 643.6	30750
 644.1	30694
 644.6	30707
 645.1	30719
 645.7	30722
 646.2	30675
 646.7	30706
 647.3	30733
 647.8	30763
 648.3	30742
 648.9	30807
 649.4	30739
 649.9	30819
 650.4	30861
 651.0	30937
 651.5	30978
 652.0	31050
 652.6	31039
 653.1	31151
 653.6	31109
 654.1	31196
 654.7	31198
 655.2	31321
 655.7	31393
 656.3	31430
 656.8	31433
 657.3	31521
 657.8	31505
 658.4	31547
 658.9	31598
 659.4	31686
 659.9	31713
 660.5	31710
 661.0	31773
 661.5	31837
 662.1	31811
 662.6	31839
 663.1	31818
 663.6	31919
 664.2	31872
 664.7	31857
 665.2	31800
 665.7	31907
 666.3	31870
 666.8	31867
 667.3	31869
 667.8	31825
 668.4	31845
 668.9	31845
 669.4	31810
 669.9	31815
 670.5	31752
 671.0	31749
 671.5	31697
 672.0	31726
 672.6	31703
 673.1	31723
 673.6	31624
 674.1	31637
 674.7	31615
 675.2	31645
 675.7	31517
 676.2	31481
 676.8	31529
 677.3	31529
 677.8	31448
 678.3	31521
 678.9	31451
 679.4	31377
 679.9	31417
 680.4	31400
 681.0	31353
 681.5	31371
 682.0	31315
 682.5	31335
 683.1	31235
 683.6	31255
 684.1	31197
 684.6	31273
 685.1	31223
 685.7	31227
 686.2	31205
 686.7	31157
 687.2	31147
 687.8	31203
 688.3	31144
 688.8	31155
 689.3	31100
 689.8	31133
 690.4	31117
 690.9	31131
 691.4	31159
 691.9	31163
 692.4	31145
 693.0	31209
 693.5	31173
 694.0	31172
 694.5	31160
 695.1	31140
 695.6	31110
 696.1	31175
 696.6	31169
 697.1	31187
 697.7	31213
 698.2	31146
 698.7	31182
 699.2	31136
 699.7	31147
 700.3	31091
 700.8	31069
 701.3	31152
 701.8	31114
 702.3	31053
 702.8	31052
 703.4	31033
 703.9	30999
 704.4	30958
 704.9	30925
 705.4	30903
 706.0	30957
 706.5	30928
 707.0	30831
 707.5	30792
 708.0	30798
 708.5	30733
 709.1	30773
 709.6	30716
 710.1	30653
 710.6	30623
 711.1	30589
 711.7	30591
 712.2	30563
 712.7	30563
 713.2	30521
 713.7	30507
 714.2	30447
 714.8	30528
 715.3	30466
 715.8	30455
 716.3	30451
 716.8	30379
 717.3	30364
 717.8	30454
 718.4	30465
 718.9	30400
 719.4	30487
 719.9	30393
 720.4	30444
 720.9	30465
 721.4	30459
 722.0	30491
 722.5	30486
 723.0	30483
 723.5	30502
 724.0	30476
 724.5	30470
 725.0	30515
 725.6	30455
 726.1	30513
 726.6	30619
 727.1	30567
 727.6	30612
 728.1	30643
 728.6	30604
 729.1	30603
 729.7	30590
 730.2	30616
 730.7	30641
 731.2	30676
 731.7	30663
 732.2	30683
 732.7	30655
 733.2	30696
 733.8	30671
 734.3	30701
 734.8	30691
 735.3	30727
 735.8	30736
 736.3	30731
 736.8	30784
 737.3	30840
 737.8	30801
 738.4	30809
 738.9	30767
 739.4	30861
 739.9	30847
 740.4	30879
 740.9	30852
 741.4	30862
 741.9	30854
 742.4	30863
 742.9	30845
 743.4	30911
 744.0	30817
 744.5	30807
 745.0	30799
 745.5	30850
 746.0	30813
 746.5	30815
 747.0	30743
 747.5	30708
 748.0	30677
 748.5	30679
 749.0	30674
 749.5	30730
 750.0	30558
 750.5	30579
 751.1	30555
 751.6	30531
 752.1	30491
 752.6	30444
 753.1	30453
 753.6	30365
 754.1	30309
 754.6	30318
 755.1	30246
 755.6	30225
 756.1	30116
 756.6	30163
 757.1	30109
 757.6	30061
 758.1	29991
 758.6	29953
 759.1	29851
 759.6	29849
 760.1	29767
 760.7	29689
 761.2	29734
 761.7	29655
 762.2	29607
 762.7	29610
 763.2	29460
 763.7	29498
 764.2	29399
 764.7	29359
 765.2	29339
 765.7	29263
 766.2	29186
 766.7	29185
 767.2	29091
 767.7	29048
 768.2	28992
 768.7	28923
 769.2	28874
 769.7	28875
 770.2	28819
 770.7	28789
 771.2	28731
 771.7	28687
 772.2	28674
 772.7	28683
 773.2	28637
 773.7	28567
 774.2	28499
 774.7	28511
 775.2	28467
 775.7	28443
 776.2	28403
 776.7	28417
 777.2	28330
 777.7	28375
 778.2	28341
 778.7	28367
 779.2	28350
 779.7	28367
 780.2	28208
 780.7	28255
 781.2	28241
 781.7	28277
 782.2	28207
 782.6	28259
 783.1	28246
 783.6	28207
 784.1	28154
 784.6	28145
 785.1	28149
 785.6	28134
 786.1	28137
 786.6	28147
 787.1	28088
 787.6	28071
 788.1	28051
 788.6	28025
 789.1	28003
 789.6	28004
 790.1	28005
 790.6	27986
 791.1	27875
 791.6	27859
 792.0	27840
 792.5	27853
 793.0	27805
 793.5	27775
 794.0	27691
 794.5	27749
 795.0	27687
 795.5	27649
 796.0	27613
 796.5	27535
 797.0	27514
 797.5	27517
 798.0	27339
 798.4	27333
 798.9	27277
 799.4	27253
 799.9	27218
 800.4	27045
 800.9	27099
 801.4	27103
 801.9	27007
 802.4	26893
 802.9	26898
 803.3	26841
 803.8	26770
 804.3	26680
 804.8	26678
 805.3	26591
 805.8	26517
 806.3	26464
 806.8	26407
 807.2	26349
 807.7	26274
 808.2	26243
 808.7	26123
 809.2	26087
 809.7	25977
 810.2	25990
 810.7	25889
 811.1	25847
 811.6	25807
 812.1	25721
 812.6	25640
 813.1	25649
 813.6	25621
 814.1	25567
 814.5	25487
 815.0	25467
 815.5	25385
 816.0	25311
 816.5	25329
 817.0	25249
 817.4	25200
 817.9	25201
 818.4	25094
 818.9	25145
 819.4	25071
 819.9	25017
 820.3	24967
 820.8	24929
 821.3	24911
 821.8	24890
 822.3	24803
 822.7	24761
 823.2	24795
 823.7	24723
 824.2	24709
 824.7	24661
 825.2	24651
 825.6	24605
 826.1	24574
 826.6	24604
 827.1	24563
 827.6	24545
 828.0	24461
 828.5	24422
 829.0	24445
 829.5	24370
 829.9	24355
 830.4	24393
 830.9	24350
 831.4	24363
 831.9	24307
 832.3	24365
 832.8	24287
 833.3	24282
 833.8	24336
 834.2	24314
 834.7	24157
 835.2	24233
 835.7	24221
 836.1	24205
 836.6	24170
 837.1	24158
 837.6	24157
 838.0	24175
 838.5	24182
 839.0	24176
 839.5	24156
 839.9	24071
 840.4	24067
 840.9	24026
 841.4	24041
 841.8	24057
 842.3	24057
 842.8	24063
 843.3	24047
 843.7	23934
 844.2	23912
 844.7	23976
 845.1	23938
 845.6	23853
 846.1	23861
 846.6	23882
 847.0	23776
 847.5	23809
 848.0	23781
 848.4	23800
 848.9	23742
 849.4	23707
 849.8	23707
 850.3	23693
 850.8	23724
 851.3	23662
 851.7	23646
 852.2	23627
 852.7	23605
 853.1	23569
 853.6	23501
 854.1	23525
 854.5	23471
 855.0	23434
 855.5	23413
 855.9	23452
 856.4	23414
 856.9	23321
 857.3	23349
 857.8	23294
 858.3	23293
 858.7	23233
 859.2	23239
 859.7	23235
 860.1	23274
 860.6	23235
 861.1	23153
 861.5	23179
 862.0	23161
 862.4	23118
 862.9	23065
 863.4	23090
 863.8	23075
 864.3	23055
 864.8	22961
 865.2	22987
 865.7	22983
 866.1	22978
 866.6	22883
 867.1	22945
 867.5	22907
 868.0	22873
 868.5	22809
 868.9	22777
 869.4	22859
 869.8	22801
 870.3	22743
 870.8	22791
 871.2	22733
 871.7	22709
 872.1	22637
 872.6	22673
 873.0	22631
 873.5	22693
 874.0	22660
 874.4	22533
 874.9	22557
 875.3	22495
 875.8	22377
 876.2	22147
 876.7	21965
 877.2	21591
 877.6	21135
 878.1	20667
