#xlabel Wavelength (nm)
#ylabel Spectrometer Array Counts
#title Exposure time is 10000 ms
## lambda	counts
 349.8	17867
 350.3	18112
 350.8	18264
 351.3	18349
 351.9	18369
 352.4	18418
 352.9	18458
 353.4	18405
 354.0	18402
 354.5	18449
 355.0	18463
 355.5	18479
 356.0	18446
 356.6	18426
 357.1	18483
 357.6	18455
 358.1	18489
 358.7	18431
 359.2	18441
 359.7	18465
 360.2	18499
 360.8	18463
 361.3	18561
 361.8	18509
 362.3	18530
 362.9	18492
 363.4	18570
 363.9	18570
 364.4	18597
 364.9	18512
 365.5	18584
 366.0	18570
 366.5	18524
 367.0	18571
 367.6	18599
 368.1	18603
 368.6	18539
 369.1	18599
 369.7	18654
 370.2	18579
 370.7	18585
 371.2	18629
 371.8	18688
 372.3	18615
 372.8	18694
 373.3	18710
 373.9	18661
 374.4	18680
 374.9	18735
 375.5	18627
 376.0	18760
 376.5	18731
 377.0	18758
 377.6	18706
 378.1	18795
 378.6	18735
 379.1	18745
 379.7	18731
 380.2	18813
 380.7	18819
 381.2	18782
 381.8	18781
 382.3	18826
 382.8	18814
 383.4	18869
 383.9	18820
 384.4	18980
 384.9	18891
 385.5	18916
 386.0	18923
 386.5	18998
 387.1	18932
 387.6	18958
 388.1	18966
 388.6	18991
 389.2	18986
 389.7	19020
 390.2	19007
 390.8	19102
 391.3	19085
 391.8	19095
 392.3	19091
 392.9	19101
 393.4	19101
 393.9	19183
 394.5	19195
 395.0	19161
 395.5	19190
 396.0	19203
 396.6	19177
 397.1	19284
 397.6	19287
 398.2	19295
 398.7	19302
 399.2	19403
 399.8	19279
 400.3	19353
 400.8	19404
 401.3	19379
 401.9	19406
 402.4	19431
 402.9	19432
 403.5	19466
 404.0	19466
 404.5	19419
 405.1	19444
 405.6	19550
 406.1	19535
 406.7	19557
 407.2	19583
 407.7	19679
 408.2	19687
 408.8	19699
 409.3	19746
 409.8	19808
 410.4	19782
 410.9	19794
 411.4	19759
 412.0	19834
 412.5	19898
 413.0	19858
 413.6	19913
 414.1	19893
 414.6	19927
 415.2	19985
 415.7	19931
 416.2	19997
 416.8	19989
 417.3	19989
 417.8	20023
 418.4	20123
 418.9	20071
 419.4	20217
 420.0	20115
 420.5	20190
 421.0	20140
 421.5	20242
 422.1	20229
 422.6	20293
 423.1	20327
 423.7	20303
 424.2	20296
 424.7	20341
 425.3	20328
 425.8	20358
 426.3	20352
 426.9	20426
 427.4	20377
 427.9	20495
 428.5	20456
 429.0	20508
 429.6	20483
 430.1	20583
 430.6	20603
 431.2	20570
 431.7	20696
 432.2	20688
 432.8	20691
 433.3	20829
 433.8	20859
 434.4	20853
 434.9	20895
 435.4	20971
 436.0	20974
 436.5	20989
 437.0	21088
 437.6	21074
 438.1	21143
 438.6	21157
 439.2	21195
 439.7	21191
 440.2	21143
 440.8	21175
 441.3	21183
 441.8	21191
 442.4	21161
 442.9	21189
 443.5	21225
 444.0	21225
 444.5	21262
 445.1	21181
 445.6	21225
 446.1	21267
 446.7	21299
 447.2	21328
 447.7	21343
 448.3	21437
 448.8	21429
 449.3	21494
 449.9	21477
 450.4	21615
 450.9	21689
 451.5	21725
 452.0	21743
 452.6	21795
 453.1	21900
 453.6	21942
 454.2	21876
 454.7	21983
 455.2	22041
 455.8	22115
 456.3	22083
 456.8	22225
 457.4	22179
 457.9	22209
 458.5	22265
 459.0	22235
 459.5	22284
 460.1	22246
 460.6	22292
 461.1	22283
 461.7	22335
 462.2	22289
 462.7	22331
 463.3	22265
 463.8	22336
 464.4	22413
 464.9	22368
 465.4	22449
 466.0	22367
 466.5	22456
 467.0	22413
 467.6	22503
 468.1	22605
 468.7	22565
 469.2	22523
 469.7	22648
 470.3	22655
 470.8	22723
 471.3	22734
 471.9	22724
 472.4	22802
 473.0	22873
 473.5	22924
 474.0	22949
 474.6	22981
 475.1	23007
 475.6	23109
 476.2	23133
 476.7	23134
 477.3	23214
 477.8	23177
 478.3	23124
 478.9	23350
 479.4	23265
 479.9	23299
 480.5	23315
 481.0	23375
 481.6	23417
 482.1	23512
 482.6	23524
 483.2	23567
 483.7	23700
 484.2	23669
 484.8	23550
 485.3	23663
 485.9	23765
 486.4	23757
 486.9	23804
 487.5	23793
 488.0	23828
 488.6	23912
 489.1	23946
 489.6	24012
 490.2	24027
 490.7	24009
 491.2	23997
 491.8	24062
 492.3	24024
 492.9	24083
 493.4	24108
 493.9	24120
 494.5	24131
 495.0	24189
 495.6	24114
 496.1	24122
 496.6	24170
 497.2	24090
 497.7	24056
 498.2	24137
 498.8	24148
 499.3	24078
 499.9	24133
 500.4	24135
 500.9	24134
 501.5	24147
 502.0	24245
 502.6	24249
 503.1	24364
 503.6	24371
 504.2	24369
 504.7	24418
 505.2	24522
 505.8	24559
 506.3	24706
 506.9	24775
 507.4	24802
 507.9	24836
 508.5	24930
 509.0	25039
 509.6	25172
 510.1	25195
 510.6	25294
 511.2	25367
 511.7	25419
 512.2	25534
 512.8	25610
 513.3	25615
 513.9	25639
 514.4	25724
 514.9	25832
 515.5	25747
 516.0	25833
 516.6	25793
 517.1	25840
 517.6	25808
 518.2	25774
 518.7	25695
 519.3	25731
 519.8	25731
 520.3	25703
 520.9	25644
 521.4	25619
 521.9	25649
 522.5	25542
 523.0	25529
 523.6	25549
 524.1	25398
 524.6	25441
 525.2	25451
 525.7	25500
 526.3	25441
 526.8	25548
 527.3	25509
 527.9	25559
 528.4	25563
 528.9	25651
 529.5	25704
 530.0	25731
 530.6	25823
 531.1	25867
 531.6	25840
 532.2	26006
 532.7	26036
 533.3	26135
 533.8	26308
 534.3	26415
 534.9	26483
 535.4	26495
 536.0	26631
 536.5	26724
 537.0	26760
 537.6	26842
 538.1	26944
 538.6	27013
 539.2	27013
 539.7	27075
 540.3	27205
 540.8	27215
 541.3	27201
 541.9	27264
 542.4	27278
 543.0	27371
 543.5	27343
 544.0	27322
 544.6	27365
 545.1	27381
 545.6	27410
 546.2	27393
 546.7	27295
 547.3	27354
 547.8	27329
 548.3	27362
 548.9	27269
 549.4	27259
 550.0	27222
 550.5	27283
 551.0	27316
 551.6	27265
 552.1	27268
 552.6	27271
 553.2	27225
 553.7	27213
 554.3	27248
 554.8	27319
 555.3	27183
 555.9	27260
 556.4	27245
 556.9	27367
 557.5	27407
 558.0	27385
 558.6	27384
 559.1	27475
 559.6	27484
 560.2	27521
 560.7	27545
 561.3	27539
 561.8	27548
 562.3	27691
 562.9	27697
 563.4	27763
 563.9	27769
 564.5	27807
 565.0	27811
 565.6	27853
 566.1	27861
 566.6	27876
 567.2	27873
 567.7	27978
 568.2	27925
 568.8	27934
 569.3	27925
 569.9	27988
 570.4	27973
 570.9	27969
 571.5	27975
 572.0	27976
 572.5	28042
 573.1	28009
 573.6	28085
 574.1	28077
 574.7	28099
 575.2	28099
 575.8	28163
 576.3	28257
 576.8	28255
 577.4	28285
 577.9	28326
 578.4	28335
 579.0	28375
 579.5	28513
 580.1	28470
 580.6	28527
 581.1	28635
 581.7	28692
 582.2	28671
 582.7	28741
 583.3	28807
 583.8	28814
 584.3	28804
 584.9	28879
 585.4	28902
 586.0	28913
 586.5	28972
 587.0	28962
 587.6	29059
 588.1	29035
 588.6	29111
 589.2	29079
 589.7	29103
 590.2	29100
 590.8	29091
 591.3	29113
 591.9	29053
 592.4	29095
 592.9	29023
 593.5	28992
 594.0	28971
 594.5	28965
 595.1	28903
 595.6	28853
 596.1	28885
 596.7	28826
 597.2	28835
 597.7	28751
 598.3	28737
 598.8	28696
 599.3	28670
 599.9	28604
 600.4	28582
 601.0	28569
 601.5	28547
 602.0	28525
 602.6	28467
 603.1	28483
 603.6	28486
 604.2	28581
 604.7	28509
 605.2	28585
 605.8	28510
 606.3	28555
 606.8	28633
 607.4	28641
 607.9	28708
 608.4	28674
 609.0	28747
 609.5	28815
 610.0	28823
 610.6	28944
 611.1	28895
 611.6	28973
 612.2	29010
 612.7	29099
 613.2	29137
 613.8	29124
 614.3	29198
 614.8	29278
 615.4	29281
 615.9	29419
 616.4	29528
 617.0	29534
 617.5	29668
 618.0	29745
 618.6	29757
 619.1	29861
 619.6	29985
 620.2	30076
 620.7	30208
 621.2	30250
 621.8	30339
 622.3	30431
 622.8	30459
 623.4	30536
 623.9	30640
 624.4	30649
 625.0	30683
 625.5	30698
 626.0	30731
 626.6	30798
 627.1	30774
 627.6	30729
 628.2	30696
 628.7	30735
 629.2	30713
 629.8	30720
 630.3	30700
 630.8	30667
 631.4	30611
 631.9	30584
 632.4	30439
 632.9	30411
 633.5	30371
 634.0	30297
 634.5	30303
 635.1	30202
 635.6	30159
 636.1	30095
 636.7	30072
 637.2	30030
 637.7	29897
 638.3	29958
 638.8	29907
 639.3	29891
 639.8	29796
 640.4	29793
 640.9	29790
 641.4	29684
 642.0	29637
 642.5	29634
 643.0	29602
 643.6	29675
 644.1	29624
 644.6	29641
 645.1	29653
 645.7	29653
 646.2	29609
 646.7	29633
 647.3	29662
 647.8	29690
 648.3	29669
 648.9	29727
 649.4	29660
 649.9	29743
 650.4	29781
 651.0	29846
 651.5	29887
 652.0	29959
 652.6	29954
 653.1	30059
 653.6	30005
 654.1	30091
 654.7	30091
 655.2	30210
 655.7	30272
 656.3	30309
 656.8	30297
 657.3	30386
 657.8	30365
 658.4	30404
 658.9	30449
 659.4	30533
 659.9	30565
 660.5	30557
 661.0	30619
 661.5	30677
 662.1	30661
 662.6	30683
 663.1	30657
 663.6	30751
 664.2	30710
 664.7	30690
 665.2	30633
 665.7	30746
 666.3	30707
 666.8	30703
 667.3	30701
 667.8	30673
 668.4	30679
 668.9	30683
 669.4	30653
 669.9	30663
 670.5	30590
 671.0	30597
 671.5	30543
 672.0	30576
 672.6	30557
 673.1	30585
 673.6	30487
 674.1	30505
 674.7	30475
 675.2	30511
 675.7	30375
 676.2	30356
 676.8	30399
 677.3	30389
 677.8	30318
 678.3	30395
 678.9	30325
 679.4	30246
 679.9	30303
 680.4	30285
 681.0	30243
 681.5	30256
 682.0	30208
 682.5	30233
 683.1	30129
 683.6	30151
 684.1	30089
 684.6	30181
 685.1	30123
 685.7	30131
 686.2	30097
 686.7	30060
 687.2	30047
 687.8	30099
 688.3	30047
 688.8	30063
 689.3	30004
 689.8	30032
 690.4	30020
 690.9	30037
 691.4	30060
 691.9	30062
 692.4	30045
 693.0	30104
 693.5	30070
 694.0	30066
 694.5	30059
 695.1	30040
 695.6	30002
 696.1	30079
 696.6	30067
 697.1	30087
 697.7	30113
 698.2	30042
 698.7	30075
 699.2	30029
 699.7	30038
 700.3	29997
 700.8	29970
 701.3	30053
 701.8	30014
 702.3	29950
 702.8	29944
 703.4	29927
 703.9	29904
 704.4	29865
 704.9	29825
 705.4	29815
 706.0	29868
 706.5	29837
 707.0	29744
 707.5	29707
 708.0	29719
 708.5	29651
 709.1	29699
 709.6	29639
 710.1	29582
 710.6	29551
 711.1	29522
 711.7	29523
 712.2	29499
 712.7	29501
 713.2	29458
 713.7	29450
 714.2	29401
 714.8	29475
 715.3	29415
 715.8	29403
 716.3	29399
 716.8	29330
 717.3	29314
 717.8	29411
 718.4	29424
 718.9	29361
 719.4	29451
 719.9	29350
 720.4	29410
 720.9	29430
 721.4	29419
 722.0	29448
 722.5	29437
 723.0	29443
 723.5	29460
 724.0	29433
 724.5	29427
 725.0	29462
 725.6	29408
 726.1	29471
 726.6	29578
 727.1	29527
 727.6	29566
 728.1	29594
 728.6	29551
 729.1	29546
 729.7	29535
 730.2	29562
 730.7	29587
 731.2	29618
 731.7	29610
 732.2	29630
 732.7	29604
 733.2	29648
 733.8	29617
 734.3	29647
 734.8	29631
 735.3	29667
 735.8	29670
 736.3	29654
 736.8	29713
 737.3	29765
 737.8	29726
 738.4	29730
 738.9	29693
 739.4	29784
 739.9	29772
 740.4	29801
 740.9	29772
 741.4	29777
 741.9	29774
 742.4	29786
 742.9	29765
 743.4	29837
 744.0	29739
 744.5	29727
 745.0	29729
 745.5	29783
 746.0	29751
 746.5	29751
 747.0	29677
 747.5	29649
 748.0	29615
 748.5	29621
 749.0	29616
 749.5	29678
 750.0	29511
 750.5	29529
 751.1	29511
 751.6	29497
 752.1	29453
 752.6	29405
 753.1	29423
 753.6	29335
 754.1	29286
 754.6	29296
 755.1	29227
 755.6	29209
 756.1	29102
 756.6	29161
 757.1	29108
 757.6	29065
 758.1	28993
 758.6	28961
 759.1	28863
 759.6	28870
 760.1	28789
 760.7	28710
 761.2	28764
 761.7	28689
 762.2	28645
 762.7	28650
 763.2	28501
 763.7	28542
 764.2	28446
 764.7	28411
 765.2	28401
 765.7	28337
 766.2	28264
 766.7	28265
 767.2	28178
 767.7	28139
 768.2	28087
 768.7	28024
 769.2	27973
 769.7	27983
 770.2	27932
 770.7	27905
 771.2	27855
 771.7	27811
 772.2	27793
 772.7	27823
 773.2	27767
 773.7	27703
 774.2	27636
 774.7	27653
 775.2	27621
 775.7	27583
 776.2	27556
 776.7	27566
 777.2	27475
 777.7	27530
 778.2	27497
 778.7	27526
 779.2	27516
 779.7	27534
 780.2	27369
 780.7	27421
 781.2	27403
 781.7	27450
 782.2	27377
 782.6	27436
 783.1	27423
 783.6	27388
 784.1	27338
 784.6	27319
 785.1	27323
 785.6	27314
 786.1	27329
 786.6	27333
 787.1	27275
 787.6	27258
 788.1	27238
 788.6	27219
 789.1	27195
 789.6	27203
 790.1	27199
 790.6	27188
 791.1	27078
 791.6	27059
 792.0	27049
 792.5	27065
 793.0	27017
 793.5	26991
 794.0	26913
 794.5	26973
 795.0	26910
 795.5	26870
 796.0	26847
 796.5	26773
 797.0	26760
 797.5	26770
 798.0	26588
 798.4	26587
 798.9	26539
 799.4	26516
 799.9	26484
 800.4	26320
 800.9	26381
 801.4	26383
 801.9	26305
 802.4	26185
 802.9	26200
 803.3	26155
 803.8	26077
 804.3	25995
 804.8	26002
 805.3	25922
 805.8	25852
 806.3	25807
 806.8	25752
 807.2	25701
 807.7	25633
 808.2	25613
 808.7	25499
 809.2	25459
 809.7	25359
 810.2	25379
 810.7	25279
 811.1	25245
 811.6	25208
 812.1	25127
 812.6	25055
 813.1	25060
 813.6	25037
 814.1	24996
 814.5	24914
 815.0	24908
 815.5	24827
 816.0	24754
 816.5	24782
 817.0	24705
 817.4	24655
 817.9	24659
 818.4	24555
 818.9	24611
 819.4	24540
 819.9	24491
 820.3	24440
 820.8	24413
 821.3	24395
 821.8	24380
 822.3	24293
 822.7	24255
 823.2	24289
 823.7	24223
 824.2	24211
 824.7	24161
 825.2	24157
 825.6	24115
 826.1	24088
 826.6	24125
 827.1	24087
 827.6	24068
 828.0	23987
 828.5	23947
 829.0	23967
 829.5	23894
 829.9	23882
 830.4	23925
 830.9	23885
 831.4	23903
 831.9	23844
 832.3	23908
 832.8	23831
 833.3	23825
 833.8	23889
 834.2	23870
 834.7	23706
 835.2	23786
 835.7	23771
 836.1	23752
 836.6	23722
 837.1	23714
 837.6	23714
 838.0	23734
 838.5	23745
 839.0	23739
 839.5	23716
 839.9	23626
 840.4	23627
 840.9	23583
 841.4	23607
 841.8	23629
 842.3	23623
 842.8	23627
 843.3	23619
 843.7	23502
 844.2	23483
 844.7	23547
 845.1	23517
 845.6	23429
 846.1	23447
 846.6	23463
 847.0	23358
 847.5	23389
 848.0	23358
 848.4	23384
 848.9	23331
 849.4	23289
 849.8	23300
 850.3	23282
 850.8	23315
 851.3	23263
 851.7	23241
 852.2	23227
 852.7	23206
 853.1	23163
 853.6	23096
 854.1	23116
 854.5	23072
 855.0	23037
 855.5	23011
 855.9	23056
 856.4	23021
 856.9	22923
 857.3	22950
 857.8	22899
 858.3	22904
 858.7	22839
 859.2	22848
 859.7	22837
 860.1	22881
 860.6	22842
 861.1	22755
 861.5	22783
 862.0	22770
 862.4	22725
 862.9	22670
 863.4	22696
 863.8	22680
 864.3	22660
 864.8	22563
 865.2	22595
 865.7	22592
 866.1	22593
 866.6	22494
 867.1	22562
 867.5	22533
 868.0	22490
 868.5	22429
 868.9	22413
 869.4	22499
 869.8	22443
 870.3	22388
 870.8	22439
 871.2	22380
 871.7	22354
 872.1	22285
 872.6	22312
 873.0	22263
 873.5	22316
 874.0	22284
 874.4	22155
 874.9	22196
 875.3	22177
 875.8	22136
 876.2	22035
 876.7	22018
 877.2	21824
 877.6	21462
 878.1	20849
