#xlabel Wavelength (nm)
#ylabel Spectrometer Array Counts
#title Exposure time is 10000 ms
## lambda	counts
 349.8	17880
 350.3	18153
 350.8	18333
 351.3	18418
 351.9	18434
 352.4	18477
 352.9	18499
 353.4	18434
 354.0	18422
 354.5	18462
 355.0	18465
 355.5	18482
 356.0	18446
 356.6	18420
 357.1	18473
 357.6	18456
 358.1	18486
 358.7	18425
 359.2	18441
 359.7	18465
 360.2	18503
 360.8	18467
 361.3	18565
 361.8	18514
 362.3	18540
 362.9	18498
 363.4	18577
 363.9	18574
 364.4	18601
 364.9	18513
 365.5	18586
 366.0	18570
 366.5	18533
 367.0	18580
 367.6	18603
 368.1	18607
 368.6	18543
 369.1	18608
 369.7	18659
 370.2	18584
 370.7	18590
 371.2	18639
 371.8	18691
 372.3	18622
 372.8	18703
 373.3	18718
 373.9	18661
 374.4	18684
 374.9	18739
 375.5	18635
 376.0	18769
 376.5	18736
 377.0	18767
 377.6	18715
 378.1	18796
 378.6	18745
 379.1	18750
 379.7	18732
 380.2	18815
 380.7	18823
 381.2	18787
 381.8	18787
 382.3	18838
 382.8	18817
 383.4	18873
 383.9	18826
 384.4	18984
 384.9	18899
 385.5	18919
 386.0	18929
 386.5	19004
 387.1	18939
 387.6	18961
 388.1	18974
 388.6	18997
 389.2	18993
 389.7	19021
 390.2	19015
 390.8	19105
 391.3	19087
 391.8	19096
 392.3	19098
 392.9	19106
 393.4	19108
 393.9	19188
 394.5	19200
 395.0	19167
 395.5	19195
 396.0	19208
 396.6	19183
 397.1	19287
 397.6	19294
 398.2	19301
 398.7	19307
 399.2	19407
 399.8	19286
 400.3	19358
 400.8	19405
 401.3	19383
 401.9	19411
 402.4	19436
 402.9	19436
 403.5	19469
 404.0	19464
 404.5	19423
 405.1	19445
 405.6	19558
 406.1	19543
 406.7	19566
 407.2	19586
 407.7	19687
 408.2	19693
 408.8	19705
 409.3	19748
 409.8	19812
 410.4	19785
 410.9	19802
 411.4	19761
 412.0	19841
 412.5	19899
 413.0	19861
 413.6	19917
 414.1	19893
 414.6	19935
 415.2	19986
 415.7	19937
 416.2	19997
 416.8	19994
 417.3	19990
 417.8	20030
 418.4	20126
 418.9	20078
 419.4	20213
 420.0	20116
 420.5	20193
 421.0	20143
 421.5	20242
 422.1	20229
 422.6	20293
 423.1	20334
 423.7	20308
 424.2	20303
 424.7	20345
 425.3	20328
 425.8	20359
 426.3	20356
 426.9	20427
 427.4	20381
 427.9	20503
 428.5	20457
 429.0	20509
 429.6	20484
 430.1	20584
 430.6	20602
 431.2	20569
 431.7	20695
 432.2	20687
 432.8	20691
 433.3	20824
 433.8	20854
 434.4	20853
 434.9	20895
 435.4	20972
 436.0	20972
 436.5	20990
 437.0	21081
 437.6	21074
 438.1	21144
 438.6	21160
 439.2	21195
 439.7	21192
 440.2	21144
 440.8	21183
 441.3	21189
 441.8	21191
 442.4	21163
 442.9	21190
 443.5	21225
 444.0	21229
 444.5	21260
 445.1	21179
 445.6	21226
 446.1	21263
 446.7	21296
 447.2	21330
 447.7	21337
 448.3	21435
 448.8	21425
 449.3	21494
 449.9	21477
 450.4	21613
 450.9	21687
 451.5	21726
 452.0	21741
 452.6	21795
 453.1	21898
 453.6	21944
 454.2	21881
 454.7	21982
 455.2	22040
 455.8	22116
 456.3	22090
 456.8	22230
 457.4	22185
 457.9	22209
 458.5	22263
 459.0	22230
 459.5	22286
 460.1	22246
 460.6	22292
 461.1	22286
 461.7	22334
 462.2	22286
 462.7	22331
 463.3	22264
 463.8	22335
 464.4	22414
 464.9	22369
 465.4	22442
 466.0	22365
 466.5	22452
 467.0	22405
 467.6	22493
 468.1	22597
 468.7	22565
 469.2	22523
 469.7	22641
 470.3	22652
 470.8	22719
 471.3	22731
 471.9	22722
 472.4	22804
 473.0	22875
 473.5	22922
 474.0	22945
 474.6	22979
 475.1	23003
 475.6	23103
 476.2	23131
 476.7	23131
 477.3	23210
 477.8	23175
 478.3	23123
 478.9	23340
 479.4	23260
 479.9	23300
 480.5	23314
 481.0	23369
 481.6	23415
 482.1	23509
 482.6	23519
 483.2	23566
 483.7	23693
 484.2	23671
 484.8	23542
 485.3	23659
 485.9	23759
 486.4	23752
 486.9	23801
 487.5	23783
 488.0	23821
 488.6	23903
 489.1	23943
 489.6	24015
 490.2	24026
 490.7	24004
 491.2	23987
 491.8	24055
 492.3	24022
 492.9	24083
 493.4	24100
 493.9	24118
 494.5	24127
 495.0	24189
 495.6	24106
 496.1	24115
 496.6	24163
 497.2	24083
 497.7	24049
 498.2	24129
 498.8	24147
 499.3	24071
 499.9	24126
 500.4	24133
 500.9	24131
 501.5	24143
 502.0	24240
 502.6	24251
 503.1	24363
 503.6	24365
 504.2	24359
 504.7	24413
 505.2	24517
 505.8	24551
 506.3	24695
 506.9	24763
 507.4	24797
 507.9	24830
 508.5	24929
 509.0	25034
 509.6	25165
 510.1	25187
 510.6	25283
 511.2	25367
 511.7	25414
 512.2	25527
 512.8	25595
 513.3	25607
 513.9	25636
 514.4	25726
 514.9	25823
 515.5	25739
 516.0	25821
 516.6	25789
 517.1	25829
 517.6	25803
 518.2	25767
 518.7	25683
 519.3	25719
 519.8	25731
 520.3	25691
 520.9	25631
 521.4	25614
 521.9	25640
 522.5	25538
 523.0	25523
 523.6	25543
 524.1	25393
 524.6	25426
 525.2	25444
 525.7	25491
 526.3	25433
 526.8	25537
 527.3	25500
 527.9	25543
 528.4	25555
 528.9	25644
 529.5	25693
 530.0	25719
 530.6	25811
 531.1	25870
 531.6	25829
 532.2	25994
 532.7	26027
 533.3	26127
 533.8	26305
 534.3	26406
 534.9	26473
 535.4	26493
 536.0	26621
 536.5	26717
 537.0	26754
 537.6	26828
 538.1	26939
 538.6	27003
 539.2	26999
 539.7	27062
 540.3	27191
 540.8	27203
 541.3	27191
 541.9	27255
 542.4	27275
 543.0	27353
 543.5	27330
 544.0	27317
 544.6	27355
 545.1	27376
 545.6	27395
 546.2	27382
 546.7	27287
 547.3	27351
 547.8	27321
 548.3	27353
 548.9	27258
 549.4	27251
 550.0	27214
 550.5	27274
 551.0	27301
 551.6	27251
 552.1	27261
 552.6	27260
 553.2	27211
 553.7	27198
 554.3	27233
 554.8	27303
 555.3	27177
 555.9	27245
 556.4	27239
 556.9	27351
 557.5	27396
 558.0	27374
 558.6	27375
 559.1	27463
 559.6	27466
 560.2	27502
 560.7	27537
 561.3	27531
 561.8	27537
 562.3	27681
 562.9	27688
 563.4	27755
 563.9	27762
 564.5	27795
 565.0	27803
 565.6	27842
 566.1	27849
 566.6	27869
 567.2	27870
 567.7	27972
 568.2	27913
 568.8	27919
 569.3	27916
 569.9	27977
 570.4	27970
 570.9	27956
 571.5	27961
 572.0	27971
 572.5	28035
 573.1	27996
 573.6	28077
 574.1	28070
 574.7	28094
 575.2	28082
 575.8	28151
 576.3	28249
 576.8	28241
 577.4	28278
 577.9	28318
 578.4	28325
 579.0	28363
 579.5	28497
 580.1	28457
 580.6	28511
 581.1	28620
 581.7	28680
 582.2	28658
 582.7	28724
 583.3	28795
 583.8	28803
 584.3	28787
 584.9	28866
 585.4	28887
 586.0	28895
 586.5	28955
 587.0	28957
 587.6	29046
 588.1	29024
 588.6	29101
 589.2	29060
 589.7	29091
 590.2	29092
 590.8	29074
 591.3	29105
 591.9	29042
 592.4	29086
 592.9	29009
 593.5	28980
 594.0	28961
 594.5	28954
 595.1	28896
 595.6	28843
 596.1	28871
 596.7	28819
 597.2	28823
 597.7	28743
 598.3	28729
 598.8	28684
 599.3	28659
 599.9	28595
 600.4	28567
 601.0	28555
 601.5	28532
 602.0	28507
 602.6	28453
 603.1	28474
 603.6	28475
 604.2	28571
 604.7	28493
 605.2	28567
 605.8	28493
 606.3	28541
 606.8	28626
 607.4	28627
 607.9	28695
 608.4	28665
 609.0	28737
 609.5	28805
 610.0	28810
 610.6	28934
 611.1	28890
 611.6	28965
 612.2	29002
 612.7	29091
 613.2	29131
 613.8	29103
 614.3	29186
 614.8	29263
 615.4	29267
 615.9	29403
 616.4	29520
 617.0	29523
 617.5	29650
 618.0	29731
 618.6	29749
 619.1	29847
 619.6	29973
 620.2	30052
 620.7	30195
 621.2	30235
 621.8	30323
 622.3	30415
 622.8	30451
 623.4	30527
 623.9	30626
 624.4	30644
 625.0	30667
 625.5	30687
 626.0	30717
 626.6	30775
 627.1	30765
 627.6	30716
 628.2	30685
 628.7	30729
 629.2	30702
 629.8	30707
 630.3	30690
 630.8	30658
 631.4	30594
 631.9	30573
 632.4	30429
 632.9	30402
 633.5	30357
 634.0	30282
 634.5	30293
 635.1	30189
 635.6	30145
 636.1	30081
 636.7	30052
 637.2	30019
 637.7	29883
 638.3	29947
 638.8	29895
 639.3	29877
 639.8	29787
 640.4	29782
 640.9	29775
 641.4	29673
 642.0	29627
 642.5	29627
 643.0	29588
 643.6	29659
 644.1	29619
 644.6	29631
 645.1	29638
 645.7	29645
 646.2	29593
 646.7	29623
 647.3	29653
 647.8	29676
 648.3	29656
 648.9	29714
 649.4	29646
 649.9	29727
 650.4	29770
 651.0	29839
 651.5	29874
 652.0	29950
 652.6	29935
 653.1	30045
 653.6	29989
 654.1	30081
 654.7	30080
 655.2	30193
 655.7	30255
 656.3	30303
 656.8	30289
 657.3	30369
 657.8	30352
 658.4	30392
 658.9	30440
 659.4	30524
 659.9	30551
 660.5	30547
 661.0	30610
 661.5	30670
 662.1	30648
 662.6	30675
 663.1	30646
 663.6	30741
 664.2	30696
 664.7	30677
 665.2	30625
 665.7	30735
 666.3	30695
 666.8	30694
 667.3	30693
 667.8	30657
 668.4	30669
 668.9	30676
 669.4	30642
 669.9	30650
 670.5	30580
 671.0	30588
 671.5	30532
 672.0	30565
 672.6	30547
 673.1	30569
 673.6	30471
 674.1	30495
 674.7	30465
 675.2	30495
 675.7	30361
 676.2	30341
 676.8	30386
 677.3	30388
 677.8	30299
 678.3	30387
 678.9	30307
 679.4	30235
 679.9	30290
 680.4	30271
 681.0	30225
 681.5	30249
 682.0	30196
 682.5	30219
 683.1	30117
 683.6	30140
 684.1	30078
 684.6	30173
 685.1	30110
 685.7	30111
 686.2	30086
 686.7	30043
 687.2	30039
 687.8	30092
 688.3	30033
 688.8	30047
 689.3	29988
 689.8	30023
 690.4	30010
 690.9	30025
 691.4	30051
 691.9	30047
 692.4	30030
 693.0	30090
 693.5	30060
 694.0	30055
 694.5	30045
 695.1	30028
 695.6	29993
 696.1	30069
 696.6	30057
 697.1	30077
 697.7	30101
 698.2	30030
 698.7	30062
 699.2	30025
 699.7	30029
 700.3	29975
 700.8	29955
 701.3	30039
 701.8	30000
 702.3	29934
 702.8	29933
 703.4	29922
 703.9	29889
 704.4	29853
 704.9	29813
 705.4	29803
 706.0	29858
 706.5	29827
 707.0	29732
 707.5	29701
 708.0	29704
 708.5	29634
 709.1	29683
 709.6	29634
 710.1	29575
 710.6	29542
 711.1	29513
 711.7	29515
 712.2	29491
 712.7	29493
 713.2	29449
 713.7	29441
 714.2	29390
 714.8	29464
 715.3	29401
 715.8	29391
 716.3	29398
 716.8	29317
 717.3	29307
 717.8	29401
 718.4	29415
 718.9	29359
 719.4	29438
 719.9	29345
 720.4	29393
 720.9	29419
 721.4	29411
 722.0	29436
 722.5	29429
 723.0	29434
 723.5	29454
 724.0	29431
 724.5	29421
 725.0	29459
 725.6	29399
 726.1	29465
 726.6	29570
 727.1	29513
 727.6	29554
 728.1	29587
 728.6	29542
 729.1	29543
 729.7	29523
 730.2	29547
 730.7	29580
 731.2	29608
 731.7	29601
 732.2	29621
 732.7	29602
 733.2	29629
 733.8	29606
 734.3	29630
 734.8	29617
 735.3	29655
 735.8	29653
 736.3	29645
 736.8	29701
 737.3	29756
 737.8	29714
 738.4	29723
 738.9	29684
 739.4	29775
 739.9	29763
 740.4	29789
 740.9	29766
 741.4	29769
 741.9	29765
 742.4	29779
 742.9	29757
 743.4	29829
 744.0	29738
 744.5	29715
 745.0	29718
 745.5	29779
 746.0	29739
 746.5	29745
 747.0	29676
 747.5	29636
 748.0	29603
 748.5	29617
 749.0	29607
 749.5	29672
 750.0	29502
 750.5	29523
 751.1	29505
 751.6	29487
 752.1	29447
 752.6	29386
 753.1	29411
 753.6	29325
 754.1	29273
 754.6	29287
 755.1	29219
 755.6	29200
 756.1	29093
 756.6	29151
 757.1	29097
 757.6	29055
 758.1	28985
 758.6	28955
 759.1	28853
 759.6	28857
 760.1	28779
 760.7	28707
 761.2	28755
 761.7	28682
 762.2	28638
 762.7	28643
 763.2	28498
 763.7	28540
 764.2	28439
 764.7	28402
 765.2	28397
 765.7	28333
 766.2	28255
 766.7	28255
 767.2	28168
 767.7	28131
 768.2	28076
 768.7	28012
 769.2	27969
 769.7	27973
 770.2	27920
 770.7	27900
 771.2	27844
 771.7	27811
 772.2	27795
 772.7	27813
 773.2	27766
 773.7	27699
 774.2	27625
 774.7	27651
 775.2	27605
 775.7	27579
 776.2	27543
 776.7	27559
 777.2	27473
 777.7	27532
 778.2	27492
 778.7	27524
 779.2	27509
 779.7	27524
 780.2	27361
 780.7	27413
 781.2	27399
 781.7	27449
 782.2	27373
 782.6	27429
 783.1	27422
 783.6	27380
 784.1	27330
 784.6	27317
 785.1	27318
 785.6	27309
 786.1	27323
 786.6	27323
 787.1	27264
 787.6	27249
 788.1	27234
 788.6	27211
 789.1	27188
 789.6	27195
 790.1	27201
 790.6	27179
 791.1	27069
 791.6	27055
 792.0	27043
 792.5	27057
 793.0	27011
 793.5	26989
 794.0	26909
 794.5	26961
 795.0	26907
 795.5	26873
 796.0	26841
 796.5	26770
 797.0	26761
 797.5	26767
 798.0	26586
 798.4	26587
 798.9	26535
 799.4	26511
 799.9	26483
 800.4	26317
 800.9	26375
 801.4	26378
 801.9	26297
 802.4	26181
 802.9	26195
 803.3	26151
 803.8	26074
 804.3	25994
 804.8	26003
 805.3	25919
 805.8	25852
 806.3	25809
 806.8	25752
 807.2	25702
 807.7	25631
 808.2	25607
 808.7	25496
 809.2	25457
 809.7	25354
 810.2	25375
 810.7	25279
 811.1	25247
 811.6	25207
 812.1	25127
 812.6	25047
 813.1	25063
 813.6	25039
 814.1	24991
 814.5	24923
 815.0	24903
 815.5	24823
 816.0	24753
 816.5	24774
 817.0	24699
 817.4	24659
 817.9	24656
 818.4	24556
 818.9	24609
 819.4	24540
 819.9	24488
 820.3	24434
 820.8	24409
 821.3	24392
 821.8	24382
 822.3	24289
 822.7	24247
 823.2	24287
 823.7	24221
 824.2	24208
 824.7	24157
 825.2	24150
 825.6	24111
 826.1	24089
 826.6	24123
 827.1	24087
 827.6	24065
 828.0	23988
 828.5	23946
 829.0	23965
 829.5	23897
 829.9	23885
 830.4	23924
 830.9	23889
 831.4	23905
 831.9	23842
 832.3	23906
 832.8	23830
 833.3	23831
 833.8	23886
 834.2	23867
 834.7	23707
 835.2	23784
 835.7	23774
 836.1	23748
 836.6	23720
 837.1	23715
 837.6	23713
 838.0	23733
 838.5	23747
 839.0	23737
 839.5	23716
 839.9	23627
 840.4	23633
 840.9	23585
 841.4	23607
 841.8	23629
 842.3	23621
 842.8	23631
 843.3	23618
 843.7	23503
 844.2	23480
 844.7	23549
 845.1	23515
 845.6	23431
 846.1	23446
 846.6	23458
 847.0	23355
 847.5	23391
 848.0	23357
 848.4	23381
 848.9	23330
 849.4	23296
 849.8	23299
 850.3	23285
 850.8	23311
 851.3	23261
 851.7	23235
 852.2	23229
 852.7	23202
 853.1	23162
 853.6	23096
 854.1	23123
 854.5	23065
 855.0	23042
 855.5	23016
 855.9	23062
 856.4	23018
 856.9	22923
 857.3	22951
 857.8	22896
 858.3	22907
 858.7	22836
 859.2	22847
 859.7	22841
 860.1	22879
 860.6	22836
 861.1	22755
 861.5	22782
 862.0	22772
 862.4	22723
 862.9	22672
 863.4	22697
 863.8	22678
 864.3	22657
 864.8	22563
 865.2	22593
 865.7	22597
 866.1	22588
 866.6	22497
 867.1	22561
 867.5	22529
 868.0	22492
 868.5	22429
 868.9	22410
 869.4	22499
 869.8	22440
 870.3	22384
 870.8	22433
 871.2	22375
 871.7	22343
 872.1	22275
 872.6	22306
 873.0	22259
 873.5	22319
 874.0	22293
 874.4	22185
 874.9	22236
 875.3	22239
 875.8	22219
 876.2	22135
 876.7	22122
 877.2	21908
 877.6	21491
 878.1	20831
