#xlabel Wavelength (nm)
#ylabel Spectrometer Array Counts
#title Exposure time is 10000 ms
## lambda	counts
 349.8	17409
 350.3	17665
 350.8	17911
 351.3	18098
 351.9	18209
 352.4	18333
 352.9	18412
 353.4	18387
 354.0	18394
 354.5	18443
 355.0	18451
 355.5	18465
 356.0	18427
 356.6	18394
 357.1	18445
 357.6	18419
 358.1	18442
 358.7	18384
 359.2	18399
 359.7	18414
 360.2	18454
 360.8	18409
 361.3	18511
 361.8	18459
 362.3	18485
 362.9	18441
 363.4	18520
 363.9	18521
 364.4	18552
 364.9	18463
 365.5	18537
 366.0	18522
 366.5	18480
 367.0	18526
 367.6	18549
 368.1	18551
 368.6	18491
 369.1	18554
 369.7	18607
 370.2	18531
 370.7	18537
 371.2	18584
 371.8	18639
 372.3	18567
 372.8	18647
 373.3	18671
 373.9	18615
 374.4	18632
 374.9	18685
 375.5	18585
 376.0	18711
 376.5	18686
 377.0	18712
 377.6	18660
 378.1	18749
 378.6	18691
 379.1	18702
 379.7	18681
 380.2	18768
 380.7	18773
 381.2	18737
 381.8	18735
 382.3	18779
 382.8	18767
 383.4	18820
 383.9	18773
 384.4	18927
 384.9	18844
 385.5	18870
 386.0	18875
 386.5	18949
 387.1	18885
 387.6	18915
 388.1	18921
 388.6	18942
 389.2	18939
 389.7	18965
 390.2	18957
 390.8	19057
 391.3	19038
 391.8	19043
 392.3	19043
 392.9	19049
 393.4	19055
 393.9	19133
 394.5	19149
 395.0	19110
 395.5	19141
 396.0	19151
 396.6	19131
 397.1	19231
 397.6	19237
 398.2	19249
 398.7	19255
 399.2	19351
 399.8	19231
 400.3	19303
 400.8	19355
 401.3	19334
 401.9	19356
 402.4	19383
 402.9	19385
 403.5	19418
 404.0	19415
 404.5	19379
 405.1	19396
 405.6	19507
 406.1	19495
 406.7	19508
 407.2	19531
 407.7	19627
 408.2	19633
 408.8	19649
 409.3	19699
 409.8	19752
 410.4	19729
 410.9	19747
 411.4	19713
 412.0	19785
 412.5	19844
 413.0	19809
 413.6	19865
 414.1	19839
 414.6	19878
 415.2	19935
 415.7	19880
 416.2	19943
 416.8	19941
 417.3	19939
 417.8	19974
 418.4	20071
 418.9	20022
 419.4	20163
 420.0	20063
 420.5	20138
 421.0	20092
 421.5	20186
 422.1	20176
 422.6	20238
 423.1	20277
 423.7	20252
 424.2	20243
 424.7	20293
 425.3	20281
 425.8	20309
 426.3	20305
 426.9	20378
 427.4	20324
 427.9	20446
 428.5	20404
 429.0	20450
 429.6	20431
 430.1	20535
 430.6	20554
 431.2	20518
 431.7	20642
 432.2	20638
 432.8	20638
 433.3	20773
 433.8	20803
 434.4	20802
 434.9	20843
 435.4	20919
 436.0	20919
 436.5	20934
 437.0	21030
 437.6	21018
 438.1	21077
 438.6	21097
 439.2	21135
 439.7	21140
 440.2	21088
 440.8	21117
 441.3	21133
 441.8	21134
 442.4	21105
 442.9	21135
 443.5	21173
 444.0	21174
 444.5	21204
 445.1	21125
 445.6	21173
 446.1	21209
 446.7	21240
 447.2	21277
 447.7	21283
 448.3	21382
 448.8	21373
 449.3	21439
 449.9	21420
 450.4	21554
 450.9	21627
 451.5	21669
 452.0	21687
 452.6	21740
 453.1	21838
 453.6	21887
 454.2	21821
 454.7	21927
 455.2	21981
 455.8	22054
 456.3	22029
 456.8	22169
 457.4	22120
 457.9	22152
 458.5	22203
 459.0	22175
 459.5	22226
 460.1	22187
 460.6	22237
 461.1	22228
 461.7	22278
 462.2	22230
 462.7	22278
 463.3	22208
 463.8	22281
 464.4	22352
 464.9	22313
 465.4	22389
 466.0	22307
 466.5	22396
 467.0	22353
 467.6	22440
 468.1	22546
 468.7	22507
 469.2	22465
 469.7	22591
 470.3	22595
 470.8	22660
 471.3	22673
 471.9	22665
 472.4	22746
 473.0	22819
 473.5	22861
 474.0	22882
 474.6	22916
 475.1	22947
 475.6	23038
 476.2	23073
 476.7	23069
 477.3	23153
 477.8	23123
 478.3	23067
 478.9	23290
 479.4	23203
 479.9	23243
 480.5	23259
 481.0	23314
 481.6	23358
 482.1	23447
 482.6	23459
 483.2	23499
 483.7	23636
 484.2	23611
 484.8	23485
 485.3	23601
 485.9	23701
 486.4	23698
 486.9	23743
 487.5	23725
 488.0	23763
 488.6	23846
 489.1	23879
 489.6	23943
 490.2	23961
 490.7	23944
 491.2	23931
 491.8	24002
 492.3	23964
 492.9	24017
 493.4	24038
 493.9	24054
 494.5	24063
 495.0	24121
 495.6	24047
 496.1	24054
 496.6	24108
 497.2	24022
 497.7	23989
 498.2	24071
 498.8	24090
 499.3	24021
 499.9	24068
 500.4	24080
 500.9	24075
 501.5	24092
 502.0	24183
 502.6	24186
 503.1	24301
 503.6	24301
 504.2	24301
 504.7	24351
 505.2	24457
 505.8	24496
 506.3	24641
 506.9	24706
 507.4	24740
 507.9	24776
 508.5	24871
 509.0	24975
 509.6	25103
 510.1	25133
 510.6	25223
 511.2	25300
 511.7	25352
 512.2	25461
 512.8	25535
 513.3	25543
 513.9	25566
 514.4	25658
 514.9	25755
 515.5	25678
 516.0	25759
 516.6	25727
 517.1	25771
 517.6	25743
 518.2	25710
 518.7	25626
 519.3	25660
 519.8	25667
 520.3	25635
 520.9	25574
 521.4	25552
 521.9	25578
 522.5	25473
 523.0	25468
 523.6	25485
 524.1	25335
 524.6	25375
 525.2	25390
 525.7	25435
 526.3	25375
 526.8	25478
 527.3	25441
 527.9	25493
 528.4	25505
 528.9	25587
 529.5	25639
 530.0	25665
 530.6	25758
 531.1	25809
 531.6	25778
 532.2	25945
 532.7	25970
 533.3	26069
 533.8	26247
 534.3	26346
 534.9	26406
 535.4	26425
 536.0	26556
 536.5	26654
 537.0	26689
 537.6	26765
 538.1	26870
 538.6	26941
 539.2	26940
 539.7	27005
 540.3	27132
 540.8	27143
 541.3	27126
 541.9	27188
 542.4	27212
 543.0	27288
 543.5	27267
 544.0	27257
 544.6	27292
 545.1	27309
 545.6	27335
 546.2	27322
 546.7	27227
 547.3	27291
 547.8	27264
 548.3	27292
 548.9	27201
 549.4	27196
 550.0	27158
 550.5	27212
 551.0	27247
 551.6	27193
 552.1	27199
 552.6	27206
 553.2	27153
 553.7	27138
 554.3	27176
 554.8	27251
 555.3	27119
 555.9	27194
 556.4	27178
 556.9	27299
 557.5	27331
 558.0	27311
 558.6	27314
 559.1	27401
 559.6	27407
 560.2	27437
 560.7	27476
 561.3	27471
 561.8	27474
 562.3	27621
 562.9	27626
 563.4	27687
 563.9	27699
 564.5	27731
 565.0	27732
 565.6	27776
 566.1	27795
 566.6	27806
 567.2	27809
 567.7	27913
 568.2	27851
 568.8	27861
 569.3	27853
 569.9	27917
 570.4	27908
 570.9	27893
 571.5	27896
 572.0	27907
 572.5	27965
 573.1	27934
 573.6	28006
 574.1	28010
 574.7	28028
 575.2	28027
 575.8	28089
 576.3	28183
 576.8	28180
 577.4	28215
 577.9	28263
 578.4	28265
 579.0	28299
 579.5	28442
 580.1	28391
 580.6	28448
 581.1	28565
 581.7	28617
 582.2	28603
 582.7	28666
 583.3	28732
 583.8	28742
 584.3	28726
 584.9	28803
 585.4	28827
 586.0	28841
 586.5	28901
 587.0	28894
 587.6	28985
 588.1	28956
 588.6	29035
 589.2	28995
 589.7	29024
 590.2	29025
 590.8	29014
 591.3	29038
 591.9	28979
 592.4	29023
 592.9	28943
 593.5	28918
 594.0	28897
 594.5	28890
 595.1	28837
 595.6	28783
 596.1	28810
 596.7	28755
 597.2	28760
 597.7	28680
 598.3	28667
 598.8	28622
 599.3	28594
 599.9	28530
 600.4	28509
 601.0	28497
 601.5	28478
 602.0	28443
 602.6	28397
 603.1	28416
 603.6	28423
 604.2	28511
 604.7	28437
 605.2	28510
 605.8	28442
 606.3	28483
 606.8	28561
 607.4	28569
 607.9	28639
 608.4	28606
 609.0	28675
 609.5	28738
 610.0	28749
 610.6	28863
 611.1	28819
 611.6	28903
 612.2	28943
 612.7	29025
 613.2	29063
 613.8	29046
 614.3	29124
 614.8	29207
 615.4	29211
 615.9	29348
 616.4	29458
 617.0	29461
 617.5	29593
 618.0	29671
 618.6	29682
 619.1	29783
 619.6	29909
 620.2	30000
 620.7	30135
 621.2	30168
 621.8	30257
 622.3	30347
 622.8	30380
 623.4	30462
 623.9	30563
 624.4	30570
 625.0	30610
 625.5	30627
 626.0	30651
 626.6	30713
 627.1	30698
 627.6	30648
 628.2	30614
 628.7	30659
 629.2	30637
 629.8	30645
 630.3	30623
 630.8	30591
 631.4	30532
 631.9	30514
 632.4	30367
 632.9	30344
 633.5	30298
 634.0	30225
 634.5	30235
 635.1	30133
 635.6	30082
 636.1	30019
 636.7	29999
 637.2	29961
 637.7	29824
 638.3	29884
 638.8	29833
 639.3	29815
 639.8	29722
 640.4	29714
 640.9	29714
 641.4	29611
 642.0	29573
 642.5	29567
 643.0	29532
 643.6	29609
 644.1	29560
 644.6	29571
 645.1	29577
 645.7	29583
 646.2	29537
 646.7	29562
 647.3	29593
 647.8	29622
 648.3	29595
 648.9	29655
 649.4	29589
 649.9	29673
 650.4	29709
 651.0	29777
 651.5	29814
 652.0	29889
 652.6	29875
 653.1	29985
 653.6	29927
 654.1	30022
 654.7	30020
 655.2	30135
 655.7	30191
 656.3	30239
 656.8	30228
 657.3	30313
 657.8	30297
 658.4	30330
 658.9	30376
 659.4	30455
 659.9	30486
 660.5	30489
 661.0	30543
 661.5	30602
 662.1	30586
 662.6	30609
 663.1	30581
 663.6	30677
 664.2	30633
 664.7	30618
 665.2	30564
 665.7	30667
 666.3	30627
 666.8	30627
 667.3	30629
 667.8	30595
 668.4	30607
 668.9	30607
 669.4	30576
 669.9	30591
 670.5	30518
 671.0	30525
 671.5	30469
 672.0	30505
 672.6	30486
 673.1	30510
 673.6	30406
 674.1	30421
 674.7	30401
 675.2	30435
 675.7	30302
 676.2	30275
 676.8	30327
 677.3	30326
 677.8	30244
 678.3	30323
 678.9	30249
 679.4	30178
 679.9	30229
 680.4	30211
 681.0	30165
 681.5	30183
 682.0	30134
 682.5	30153
 683.1	30063
 683.6	30079
 684.1	30019
 684.6	30105
 685.1	30043
 685.7	30053
 686.2	30027
 686.7	29986
 687.2	29973
 687.8	30028
 688.3	29972
 688.8	29989
 689.3	29927
 689.8	29961
 690.4	29946
 690.9	29967
 691.4	29988
 691.9	29989
 692.4	29971
 693.0	30031
 693.5	29995
 694.0	29994
 694.5	29989
 695.1	29972
 695.6	29931
 696.1	29998
 696.6	29993
 697.1	30014
 697.7	30035
 698.2	29962
 698.7	29998
 699.2	29958
 699.7	29964
 700.3	29922
 700.8	29897
 701.3	29975
 701.8	29935
 702.3	29879
 702.8	29874
 703.4	29859
 703.9	29832
 704.4	29791
 704.9	29753
 705.4	29748
 706.0	29795
 706.5	29769
 707.0	29673
 707.5	29637
 708.0	29653
 708.5	29581
 709.1	29629
 709.6	29573
 710.1	29511
 710.6	29479
 711.1	29451
 711.7	29457
 712.2	29429
 712.7	29433
 713.2	29384
 713.7	29377
 714.2	29331
 714.8	29406
 715.3	29347
 715.8	29334
 716.3	29334
 716.8	29261
 717.3	29248
 717.8	29343
 718.4	29355
 718.9	29291
 719.4	29381
 719.9	29290
 720.4	29340
 720.9	29359
 721.4	29349
 722.0	29379
 722.5	29373
 723.0	29375
 723.5	29393
 724.0	29366
 724.5	29356
 725.0	29397
 725.6	29337
 726.1	29395
 726.6	29506
 727.1	29454
 727.6	29493
 728.1	29523
 728.6	29481
 729.1	29479
 729.7	29468
 730.2	29495
 730.7	29521
 731.2	29550
 731.7	29539
 732.2	29559
 732.7	29532
 733.2	29574
 733.8	29547
 734.3	29571
 734.8	29562
 735.3	29599
 735.8	29599
 736.3	29592
 736.8	29643
 737.3	29697
 737.8	29660
 738.4	29663
 738.9	29629
 739.4	29717
 739.9	29702
 740.4	29730
 740.9	29702
 741.4	29711
 741.9	29698
 742.4	29716
 742.9	29695
 743.4	29762
 744.0	29677
 744.5	29665
 745.0	29656
 745.5	29716
 746.0	29676
 746.5	29685
 747.0	29615
 747.5	29581
 748.0	29555
 748.5	29553
 749.0	29547
 749.5	29611
 750.0	29436
 750.5	29463
 751.1	29441
 751.6	29426
 752.1	29386
 752.6	29340
 753.1	29357
 753.6	29271
 754.1	29219
 754.6	29229
 755.1	29157
 755.6	29141
 756.1	29029
 756.6	29090
 757.1	29036
 757.6	28988
 758.1	28928
 758.6	28897
 759.1	28792
 759.6	28802
 760.1	28727
 760.7	28649
 761.2	28695
 761.7	28621
 762.2	28581
 762.7	28587
 763.2	28438
 763.7	28470
 764.2	28383
 764.7	28347
 765.2	28333
 765.7	28265
 766.2	28199
 766.7	28201
 767.2	28112
 767.7	28074
 768.2	28027
 768.7	27958
 769.2	27905
 769.7	27915
 770.2	27869
 770.7	27842
 771.2	27788
 771.7	27745
 772.2	27733
 772.7	27748
 773.2	27703
 773.7	27639
 774.2	27575
 774.7	27587
 775.2	27551
 775.7	27521
 776.2	27486
 776.7	27505
 777.2	27417
 777.7	27463
 778.2	27441
 778.7	27459
 779.2	27453
 779.7	27475
 780.2	27304
 780.7	27356
 781.2	27339
 781.7	27385
 782.2	27309
 782.6	27376
 783.1	27353
 783.6	27318
 784.1	27273
 784.6	27257
 785.1	27261
 785.6	27251
 786.1	27259
 786.6	27267
 787.1	27214
 787.6	27192
 788.1	27167
 788.6	27149
 789.1	27127
 789.6	27135
 790.1	27146
 790.6	27125
 791.1	27015
 791.6	26998
 792.0	26988
 792.5	26996
 793.0	26954
 793.5	26929
 794.0	26852
 794.5	26907
 795.0	26847
 795.5	26812
 796.0	26792
 796.5	26711
 797.0	26695
 797.5	26707
 798.0	26529
 798.4	26529
 798.9	26477
 799.4	26453
 799.9	26423
 800.4	26253
 800.9	26315
 801.4	26322
 801.9	26242
 802.4	26126
 802.9	26135
 803.3	26093
 803.8	26021
 804.3	25938
 804.8	25939
 805.3	25859
 805.8	25795
 806.3	25751
 806.8	25695
 807.2	25641
 807.7	25574
 808.2	25543
 808.7	25437
 809.2	25397
 809.7	25295
 810.2	25320
 810.7	25223
 811.1	25190
 811.6	25144
 812.1	25067
 812.6	24991
 813.1	25005
 813.6	24982
 814.1	24935
 814.5	24855
 815.0	24845
 815.5	24763
 816.0	24699
 816.5	24721
 817.0	24646
 817.4	24601
 817.9	24603
 818.4	24502
 818.9	24553
 819.4	24485
 819.9	24431
 820.3	24381
 820.8	24358
 821.3	24339
 821.8	24325
 822.3	24237
 822.7	24198
 823.2	24230
 823.7	24170
 824.2	24154
 824.7	24107
 825.2	24097
 825.6	24059
 826.1	24026
 826.6	24062
 827.1	24025
 827.6	24011
 828.0	23931
 828.5	23893
 829.0	23912
 829.5	23842
 829.9	23831
 830.4	23871
 830.9	23831
 831.4	23844
 831.9	23790
 832.3	23849
 832.8	23774
 833.3	23771
 833.8	23827
 834.2	23811
 834.7	23650
 835.2	23729
 835.7	23721
 836.1	23698
 836.6	23667
 837.1	23663
 837.6	23658
 838.0	23681
 838.5	23686
 839.0	23686
 839.5	23663
 839.9	23575
 840.4	23571
 840.9	23531
 841.4	23551
 841.8	23574
 842.3	23567
 842.8	23573
 843.3	23565
 843.7	23451
 844.2	23427
 844.7	23497
 845.1	23463
 845.6	23377
 846.1	23388
 846.6	23409
 847.0	23303
 847.5	23335
 848.0	23301
 848.4	23329
 848.9	23274
 849.4	23236
 849.8	23241
 850.3	23230
 850.8	23258
 851.3	23205
 851.7	23179
 852.2	23171
 852.7	23150
 853.1	23112
 853.6	23048
 854.1	23071
 854.5	23012
 855.0	22981
 855.5	22960
 855.9	22996
 856.4	22965
 856.9	22869
 857.3	22897
 857.8	22843
 858.3	22849
 858.7	22790
 859.2	22795
 859.7	22787
 860.1	22824
 860.6	22784
 861.1	22703
 861.5	22727
 862.0	22712
 862.4	22668
 862.9	22617
 863.4	22638
 863.8	22624
 864.3	22605
 864.8	22511
 865.2	22538
 865.7	22541
 866.1	22540
 866.6	22447
 867.1	22507
 867.5	22478
 868.0	22439
 868.5	22383
 868.9	22359
 869.4	22444
 869.8	22390
 870.3	22331
 870.8	22390
 871.2	22336
 871.7	22318
 872.1	22251
 872.6	22295
 873.0	22260
 873.5	22320
 874.0	22293
 874.4	22172
 874.9	22182
 875.3	22121
 875.8	21999
 876.2	21772
 876.7	21593
 877.2	21231
 877.6	20793
 878.1	20349
