#xlabel Wavelength (nm)
#ylabel Spectrometer Array Counts
#title Exposure time is 11000 ms
## lambda	counts
 349.8	18520
 350.3	18790
 350.8	19048
 351.3	19252
 351.9	19371
 352.4	19504
 352.9	19579
 353.4	19554
 354.0	19558
 354.5	19603
 355.0	19607
 355.5	19624
 356.0	19581
 356.6	19541
 357.1	19591
 357.6	19561
 358.1	19586
 358.7	19520
 359.2	19534
 359.7	19549
 360.2	19591
 360.8	19549
 361.3	19646
 361.8	19582
 362.3	19613
 362.9	19563
 363.4	19638
 363.9	19634
 364.4	19661
 364.9	19562
 365.5	19635
 366.0	19613
 366.5	19562
 367.0	19609
 367.6	19635
 368.1	19629
 368.6	19555
 369.1	19615
 369.7	19668
 370.2	19575
 370.7	19577
 371.2	19620
 371.8	19668
 372.3	19579
 372.8	19657
 373.3	19671
 373.9	19601
 374.4	19614
 374.9	19662
 375.5	19543
 376.0	19671
 376.5	19624
 377.0	19647
 377.6	19587
 378.1	19664
 378.6	19589
 379.1	19587
 379.7	19559
 380.2	19636
 380.7	19625
 381.2	19578
 381.8	19559
 382.3	19602
 382.8	19582
 383.4	19623
 383.9	19564
 384.4	19724
 384.9	19621
 385.5	19631
 386.0	19631
 386.5	19703
 387.1	19622
 387.6	19643
 388.1	19639
 388.6	19651
 389.2	19631
 389.7	19651
 390.2	19621
 390.8	19701
 391.3	19664
 391.8	19650
 392.3	19626
 392.9	19611
 393.4	19594
 393.9	19655
 394.5	19652
 395.0	19589
 395.5	19603
 396.0	19596
 396.6	19554
 397.1	19647
 397.6	19640
 398.2	19634
 398.7	19630
 399.2	19723
 399.8	19588
 400.3	19647
 400.8	19690
 401.3	19653
 401.9	19669
 402.4	19690
 402.9	19667
 403.5	19683
 404.0	19669
 404.5	19611
 405.1	19604
 405.6	19690
 406.1	19653
 406.7	19653
 407.2	19649
 407.7	19722
 408.2	19711
 408.8	19695
 409.3	19719
 409.8	19759
 410.4	19710
 410.9	19699
 411.4	19635
 412.0	19695
 412.5	19743
 413.0	19679
 413.6	19719
 414.1	19665
 414.6	19694
 415.2	19729
 415.7	19653
 416.2	19699
 416.8	19675
 417.3	19653
 417.8	19666
 418.4	19750
 418.9	19669
 419.4	19805
 420.0	19676
 420.5	19738
 421.0	19666
 421.5	19749
 422.1	19718
 422.6	19765
 423.1	19793
 423.7	19743
 424.2	19721
 424.7	19757
 425.3	19727
 425.8	19741
 426.3	19717
 426.9	19778
 427.4	19707
 427.9	19813
 428.5	19738
 429.0	19772
 429.6	19717
 430.1	19791
 430.6	19775
 431.2	19695
 431.7	19785
 432.2	19733
 432.8	19696
 433.3	19789
 433.8	19784
 434.4	19739
 434.9	19739
 435.4	19778
 436.0	19746
 436.5	19719
 437.0	19789
 437.6	19759
 438.1	19800
 438.6	19799
 439.2	19820
 439.7	19809
 440.2	19739
 440.8	19776
 441.3	19768
 441.8	19774
 442.4	19741
 442.9	19762
 443.5	19805
 444.0	19799
 444.5	19815
 445.1	19722
 445.6	19753
 446.1	19769
 446.7	19778
 447.2	19788
 447.7	19762
 448.3	19819
 448.8	19770
 449.3	19793
 449.9	19722
 450.4	19805
 450.9	19829
 451.5	19811
 452.0	19758
 452.6	19761
 453.1	19803
 453.6	19802
 454.2	19675
 454.7	19734
 455.2	19739
 455.8	19775
 456.3	19704
 456.8	19829
 457.4	19740
 457.9	19743
 458.5	19783
 459.0	19737
 459.5	19773
 460.1	19719
 460.6	19773
 461.1	19757
 461.7	19797
 462.2	19747
 462.7	19788
 463.3	19706
 463.8	19783
 464.4	19846
 464.9	19785
 465.4	19842
 466.0	19727
 466.5	19803
 467.0	19725
 467.6	19789
 468.1	19866
 468.7	19788
 469.2	19701
 469.7	19792
 470.3	19756
 470.8	19788
 471.3	19750
 471.9	19693
 472.4	19736
 473.0	19769
 473.5	19776
 474.0	19766
 474.6	19754
 475.1	19735
 475.6	19798
 476.2	19801
 476.7	19773
 477.3	19823
 477.8	19751
 478.3	19668
 478.9	19875
 479.4	19743
 479.9	19747
 480.5	19722
 481.0	19739
 481.6	19749
 482.1	19801
 482.6	19772
 483.2	19773
 483.7	19881
 484.2	19797
 484.8	19618
 485.3	19711
 485.9	19781
 486.4	19738
 486.9	19741
 487.5	19693
 488.0	19689
 488.6	19745
 489.1	19740
 489.6	19795
 490.2	19785
 490.7	19729
 491.2	19700
 491.8	19747
 492.3	19693
 492.9	19743
 493.4	19753
 493.9	19769
 494.5	19768
 495.0	19841
 495.6	19746
 496.1	19766
 496.6	19826
 497.2	19741
 497.7	19701
 498.2	19803
 498.8	19827
 499.3	19733
 499.9	19787
 500.4	19780
 500.9	19760
 501.5	19737
 502.0	19797
 502.6	19769
 503.1	19844
 503.6	19802
 504.2	19737
 504.7	19727
 505.2	19779
 505.8	19759
 506.3	19820
 506.9	19816
 507.4	19758
 507.9	19716
 508.5	19724
 509.0	19751
 509.6	19806
 510.1	19750
 510.6	19779
 511.2	19783
 511.7	19745
 512.2	19804
 512.8	19808
 513.3	19760
 513.9	19733
 514.4	19786
 514.9	19856
 515.5	19749
 516.0	19823
 516.6	19796
 517.1	19843
 517.6	19830
 518.2	19806
 518.7	19744
 519.3	19807
 519.8	19860
 520.3	19860
 520.9	19819
 521.4	19827
 521.9	19902
 522.5	19821
 523.0	19855
 523.6	19896
 524.1	19743
 524.6	19797
 525.2	19828
 525.7	19858
 526.3	19770
 526.8	19870
 527.3	19809
 527.9	19817
 528.4	19795
 528.9	19848
 529.5	19857
 530.0	19825
 530.6	19859
 531.1	19853
 531.6	19746
 532.2	19861
 532.7	19796
 533.3	19815
 533.8	19928
 534.3	19943
 534.9	19924
 535.4	19846
 536.0	19909
 536.5	19933
 537.0	19882
 537.6	19891
 538.1	19926
 538.6	19933
 539.2	19861
 539.7	19863
 540.3	19958
 540.8	19908
 541.3	19857
 541.9	19882
 542.4	19879
 543.0	19941
 543.5	19895
 544.0	19872
 544.6	19923
 545.1	19926
 545.6	19963
 546.2	19945
 546.7	19852
 547.3	19920
 547.8	19897
 548.3	19955
 548.9	19866
 549.4	19871
 550.0	19839
 550.5	19910
 551.0	19963
 551.6	19898
 552.1	19923
 552.6	19927
 553.2	19897
 553.7	19868
 554.3	19914
 554.8	19987
 555.3	19833
 555.9	19905
 556.4	19854
 556.9	19945
 557.5	19973
 558.0	19915
 558.6	19883
 559.1	19962
 559.6	19933
 560.2	19921
 560.7	19917
 561.3	19883
 561.8	19845
 562.3	19959
 562.9	19938
 563.4	19963
 563.9	19945
 564.5	19948
 565.0	19926
 565.6	19947
 566.1	19941
 566.6	19945
 567.2	19926
 567.7	20032
 568.2	19924
 568.8	19940
 569.3	19905
 569.9	19980
 570.4	19967
 570.9	19932
 571.5	19921
 572.0	19908
 572.5	19963
 573.1	19901
 573.6	19954
 574.1	19935
 574.7	19924
 575.2	19892
 575.8	19929
 576.3	19995
 576.8	19947
 577.4	19954
 577.9	19962
 578.4	19906
 579.0	19904
 579.5	20002
 580.1	19914
 580.6	19911
 581.1	19981
 581.7	19993
 582.2	19915
 582.7	19954
 583.3	19994
 583.8	19952
 584.3	19891
 584.9	19948
 585.4	19938
 586.0	19903
 586.5	19931
 587.0	19879
 587.6	19955
 588.1	19902
 588.6	19973
 589.2	19912
 589.7	19925
 590.2	19909
 590.8	19911
 591.3	19937
 591.9	19875
 592.4	19944
 592.9	19884
 593.5	19879
 594.0	19875
 594.5	19895
 595.1	19889
 595.6	19869
 596.1	19937
 596.7	19909
 597.2	19954
 597.7	19898
 598.3	19913
 598.8	19889
 599.3	19909
 599.9	19893
 600.4	19896
 601.0	19901
 601.5	19895
 602.0	19893
 602.6	19842
 603.1	19855
 603.6	19851
 604.2	19959
 604.7	19853
 605.2	19926
 605.8	19835
 606.3	19854
 606.8	19919
 607.4	19889
 607.9	19913
 608.4	19854
 609.0	19882
 609.5	19926
 610.0	19887
 610.6	19984
 611.1	19876
 611.6	19891
 612.2	19880
 612.7	19934
 613.2	19914
 613.8	19823
 614.3	19845
 614.8	19893
 615.4	19803
 615.9	19871
 616.4	19920
 617.0	19858
 617.5	19935
 618.0	19931
 618.6	19834
 619.1	19855
 619.6	19911
 620.2	19884
 620.7	19920
 621.2	19868
 621.8	19892
 622.3	19902
 622.8	19841
 623.4	19859
 623.9	19911
 624.4	19874
 625.0	19866
 625.5	19869
 626.0	19873
 626.6	19920
 627.1	19913
 627.6	19861
 628.2	19823
 628.7	19860
 629.2	19845
 629.8	19878
 630.3	19905
 630.8	19885
 631.4	19882
 631.9	19916
 632.4	19817
 632.9	19855
 633.5	19860
 634.0	19827
 634.5	19937
 635.1	19865
 635.6	19851
 636.1	19847
 636.7	19923
 637.2	19922
 637.7	19831
 638.3	19947
 638.8	19954
 639.3	19967
 639.8	19931
 640.4	19953
 640.9	19985
 641.4	19895
 642.0	19894
 642.5	19916
 643.0	19885
 643.6	19981
 644.1	19938
 644.6	19945
 645.1	19989
 645.7	19971
 646.2	19926
 646.7	19942
 647.3	19972
 647.8	19969
 648.3	19941
 648.9	19970
 649.4	19882
 649.9	19951
 650.4	19953
 651.0	19983
 651.5	19991
 652.0	20035
 652.6	19966
 653.1	20044
 653.6	19935
 654.1	20012
 654.7	19947
 655.2	20021
 655.7	20058
 656.3	20062
 656.8	19991
 657.3	20035
 657.8	19979
 658.4	19954
 658.9	19953
 659.4	20042
 659.9	20023
 660.5	19996
 661.0	20037
 661.5	20072
 662.1	20027
 662.6	20035
 663.1	19989
 663.6	20074
 664.2	20024
 664.7	19990
 665.2	19915
 665.7	20041
 666.3	20013
 666.8	20022
 667.3	20028
 667.8	19987
 668.4	20019
 668.9	20024
 669.4	20016
 669.9	20055
 670.5	19987
 671.0	20013
 671.5	19963
 672.0	20043
 672.6	20046
 673.1	20078
 673.6	19995
 674.1	20035
 674.7	20026
 675.2	20084
 675.7	19945
 676.2	19964
 676.8	20019
 677.3	20048
 677.8	19969
 678.3	20098
 678.9	20033
 679.4	19979
 679.9	20051
 680.4	20060
 681.0	20029
 681.5	20075
 682.0	20050
 682.5	20073
 683.1	19993
 683.6	20050
 684.1	19992
 684.6	20099
 685.1	20039
 685.7	20071
 686.2	20035
 686.7	20001
 687.2	19991
 687.8	20072
 688.3	20008
 688.8	20045
 689.3	19979
 689.8	20015
 690.4	20011
 690.9	20014
 691.4	20009
 691.9	20047
 692.4	19999
 693.0	20073
 693.5	20036
 694.0	20023
 694.5	20015
 695.1	19994
 695.6	19958
 696.1	20031
 696.6	20010
 697.1	20031
 697.7	20059
 698.2	19996
 698.7	20019
 699.2	19981
 699.7	19985
 700.3	19970
 700.8	19947
 701.3	20069
 701.8	20023
 702.3	19974
 702.8	19988
 703.4	19957
 703.9	19979
 704.4	19983
 704.9	19949
 705.4	19961
 706.0	20073
 706.5	20065
 707.0	19978
 707.5	19973
 708.0	20017
 708.5	19970
 709.1	20050
 709.6	20015
 710.1	19993
 710.6	19973
 711.1	19981
 711.7	20013
 712.2	20027
 712.7	20035
 713.2	20021
 713.7	20028
 714.2	19989
 714.8	20074
 715.3	20031
 715.8	20035
 716.3	20053
 716.8	19958
 717.3	19945
 717.8	20061
 718.4	20075
 718.9	20008
 719.4	20089
 719.9	19997
 720.4	20044
 720.9	20054
 721.4	20053
 722.0	20063
 722.5	20049
 723.0	20032
 723.5	20041
 724.0	20001
 724.5	19997
 725.0	20006
 725.6	19937
 726.1	19985
 726.6	20111
 727.1	20047
 727.6	20083
 728.1	20098
 728.6	20051
 729.1	20035
 729.7	20023
 730.2	20053
 730.7	20089
 731.2	20113
 731.7	20100
 732.2	20107
 732.7	20083
 733.2	20139
 733.8	20111
 734.3	20127
 734.8	20087
 735.3	20107
 735.8	20087
 736.3	20053
 736.8	20085
 737.3	20117
 737.8	20067
 738.4	20058
 738.9	19998
 739.4	20095
 739.9	20073
 740.4	20075
 740.9	20068
 741.4	20061
 741.9	20052
 742.4	20074
 742.9	20063
 743.4	20154
 744.0	20071
 744.5	20071
 745.0	20091
 745.5	20174
 746.0	20155
 746.5	20157
 747.0	20109
 747.5	20098
 748.0	20070
 748.5	20093
 749.0	20119
 749.5	20213
 750.0	20050
 750.5	20121
 751.1	20138
 751.6	20142
 752.1	20139
 752.6	20115
 753.1	20151
 753.6	20091
 754.1	20064
 754.6	20124
 755.1	20087
 755.6	20110
 756.1	20029
 756.6	20153
 757.1	20115
 757.6	20110
 758.1	20090
 758.6	20116
 759.1	20053
 759.6	20098
 760.1	20054
 760.7	20033
 761.2	20121
 761.7	20065
 762.2	20064
 762.7	20127
 763.2	19979
 763.7	20087
 764.2	20035
 764.7	20047
 765.2	20092
 765.7	20077
 766.2	20041
 766.7	20103
 767.2	20069
 767.7	20091
 768.2	20076
 768.7	20047
 769.2	20060
 769.7	20119
 770.2	20091
 770.7	20100
 771.2	20087
 771.7	20065
 772.2	20087
 772.7	20142
 773.2	20136
 773.7	20087
 774.2	20039
 774.7	20101
 775.2	20098
 775.7	20077
 776.2	20077
 776.7	20111
 777.2	20034
 777.7	20123
 778.2	20115
 778.7	20150
 779.2	20166
 779.7	20205
 780.2	20043
 780.7	20122
 781.2	20129
 781.7	20203
 782.2	20126
 782.6	20213
 783.1	20221
 783.6	20182
 784.1	20159
 784.6	20144
 785.1	20162
 785.6	20151
 786.1	20188
 786.6	20211
 787.1	20157
 787.6	20167
 788.1	20163
 788.6	20149
 789.1	20153
 789.6	20199
 790.1	20221
 790.6	20228
 791.1	20135
 791.6	20143
 792.0	20169
 792.5	20217
 793.0	20208
 793.5	20215
 794.0	20152
 794.5	20254
 795.0	20248
 795.5	20219
 796.0	20241
 796.5	20199
 797.0	20231
 797.5	20287
 798.0	20151
 798.4	20203
 798.9	20195
 799.4	20232
 799.9	20250
 800.4	20118
 800.9	20227
 801.4	20317
 801.9	20288
 802.4	20222
 802.9	20305
 803.3	20314
 803.8	20293
 804.3	20245
 804.8	20323
 805.3	20284
 805.8	20287
 806.3	20295
 806.8	20296
 807.2	20299
 807.7	20281
 808.2	20323
 808.7	20247
 809.2	20274
 809.7	20217
 810.2	20293
 810.7	20247
 811.1	20275
 811.6	20287
 812.1	20247
 812.6	20218
 813.1	20279
 813.6	20305
 814.1	20289
 814.5	20255
 815.0	20291
 815.5	20264
 816.0	20225
 816.5	20305
 817.0	20259
 817.4	20251
 817.9	20296
 818.4	20232
 818.9	20333
 819.4	20289
 819.9	20272
 820.3	20251
 820.8	20263
 821.3	20267
 821.8	20301
 822.3	20241
 822.7	20228
 823.2	20297
 823.7	20255
 824.2	20264
 824.7	20249
 825.2	20279
 825.6	20253
 826.1	20251
 826.6	20314
 827.1	20301
 827.6	20297
 828.0	20241
 828.5	20219
 829.0	20266
 829.5	20217
 829.9	20217
 830.4	20284
 830.9	20275
 831.4	20304
 831.9	20263
 832.3	20347
 832.8	20291
 833.3	20295
 833.8	20377
 834.2	20378
 834.7	20217
 835.2	20320
 835.7	20329
 836.1	20321
 836.6	20309
 837.1	20316
 837.6	20326
 838.0	20371
 838.5	20399
 839.0	20400
 839.5	20393
 839.9	20309
 840.4	20323
 840.9	20291
 841.4	20343
 841.8	20363
 842.3	20381
 842.8	20406
 843.3	20408
 843.7	20303
 844.2	20294
 844.7	20394
 845.1	20368
 845.6	20287
 846.1	20313
 846.6	20351
 847.0	20243
 847.5	20305
 848.0	20292
 848.4	20337
 848.9	20307
 849.4	20300
 849.8	20327
 850.3	20326
 850.8	20378
 851.3	20342
 851.7	20345
 852.2	20353
 852.7	20348
 853.1	20331
 853.6	20292
 854.1	20334
 854.5	20301
 855.0	20291
 855.5	20283
 855.9	20360
 856.4	20357
 856.9	20268
 857.3	20336
 857.8	20315
 858.3	20366
 858.7	20323
 859.2	20342
 859.7	20336
 860.1	20395
 860.6	20378
 861.1	20320
 861.5	20369
 862.0	20383
 862.4	20365
 862.9	20327
 863.4	20373
 863.8	20376
 864.3	20386
 864.8	20303
 865.2	20359
 865.7	20389
 866.1	20405
 866.6	20326
 867.1	20416
 867.5	20403
 868.0	20382
 868.5	20338
 868.9	20353
 869.4	20462
 869.8	20414
 870.3	20369
 870.8	20449
 871.2	20403
 871.7	20394
 872.1	20351
 872.6	20409
 873.0	20395
 873.5	20485
 874.0	20491
 874.4	20379
 874.9	20423
 875.3	20385
 875.8	20290
 876.2	20085
 876.7	19938
 877.2	19607
 877.6	19205
 878.1	18834
