#xlabel Wavelength (nm)
#ylabel Spectrometer Array Counts
#title Exposure time is 11000 ms
## lambda	counts
 349.8	18739
 350.3	19001
 350.8	19261
 351.3	19473
 351.9	19597
 352.4	19739
 352.9	19827
 353.4	19811
 354.0	19827
 354.5	19882
 355.0	19895
 355.5	19917
 356.0	19875
 356.6	19836
 357.1	19888
 357.6	19858
 358.1	19891
 358.7	19826
 359.2	19843
 359.7	19863
 360.2	19907
 360.8	19880
 361.3	19981
 361.8	19921
 362.3	19958
 362.9	19917
 363.4	20001
 363.9	19999
 364.4	20040
 364.9	19940
 365.5	20026
 366.0	20009
 366.5	19967
 367.0	20016
 367.6	20050
 368.1	20050
 368.6	19983
 369.1	20047
 369.7	20105
 370.2	20025
 370.7	20035
 371.2	20086
 371.8	20147
 372.3	20069
 372.8	20151
 373.3	20177
 373.9	20115
 374.4	20145
 374.9	20201
 375.5	20094
 376.0	20230
 376.5	20194
 377.0	20231
 377.6	20181
 378.1	20272
 378.6	20208
 379.1	20220
 379.7	20205
 380.2	20290
 380.7	20301
 381.2	20268
 381.8	20259
 382.3	20310
 382.8	20297
 383.4	20352
 383.9	20301
 384.4	20468
 384.9	20373
 385.5	20394
 386.0	20401
 386.5	20478
 387.1	20405
 387.6	20437
 388.1	20445
 388.6	20468
 389.2	20462
 389.7	20496
 390.2	20481
 390.8	20585
 391.3	20567
 391.8	20575
 392.3	20573
 392.9	20582
 393.4	20586
 393.9	20673
 394.5	20691
 395.0	20648
 395.5	20683
 396.0	20695
 396.6	20665
 397.1	20775
 397.6	20778
 398.2	20783
 398.7	20788
 399.2	20888
 399.8	20762
 400.3	20835
 400.8	20889
 401.3	20853
 401.9	20878
 402.4	20908
 402.9	20900
 403.5	20940
 404.0	20934
 404.5	20895
 405.1	20914
 405.6	21027
 406.1	21018
 406.7	21038
 407.2	21059
 407.7	21151
 408.2	21161
 408.8	21179
 409.3	21229
 409.8	21288
 410.4	21263
 410.9	21279
 411.4	21233
 412.0	21318
 412.5	21383
 413.0	21343
 413.6	21394
 414.1	21367
 414.6	21409
 415.2	21466
 415.7	21421
 416.2	21475
 416.8	21473
 417.3	21474
 417.8	21503
 418.4	21602
 418.9	21547
 419.4	21703
 420.0	21593
 420.5	21671
 421.0	21613
 421.5	21720
 422.1	21703
 422.6	21767
 423.1	21805
 423.7	21779
 424.2	21777
 424.7	21819
 425.3	21806
 425.8	21830
 426.3	21823
 426.9	21894
 427.4	21845
 427.9	21967
 428.5	21915
 429.0	21970
 429.6	21945
 430.1	22050
 430.6	22071
 431.2	22035
 431.7	22165
 432.2	22155
 432.8	22153
 433.3	22299
 433.8	22329
 434.4	22322
 434.9	22362
 435.4	22441
 436.0	22438
 436.5	22459
 437.0	22551
 437.6	22540
 438.1	22610
 438.6	22623
 439.2	22657
 439.7	22652
 440.2	22600
 440.8	22638
 441.3	22637
 441.8	22645
 442.4	22612
 442.9	22642
 443.5	22680
 444.0	22679
 444.5	22703
 445.1	22618
 445.6	22666
 446.1	22701
 446.7	22734
 447.2	22768
 447.7	22774
 448.3	22869
 448.8	22859
 449.3	22925
 449.9	22909
 450.4	23051
 450.9	23122
 451.5	23158
 452.0	23180
 452.6	23228
 453.1	23336
 453.6	23386
 454.2	23309
 454.7	23414
 455.2	23473
 455.8	23546
 456.3	23521
 456.8	23661
 457.4	23611
 457.9	23633
 458.5	23683
 459.0	23660
 459.5	23708
 460.1	23666
 460.6	23721
 461.1	23704
 461.7	23759
 462.2	23706
 462.7	23741
 463.3	23670
 463.8	23751
 464.4	23823
 464.9	23769
 465.4	23850
 466.0	23770
 466.5	23858
 467.0	23806
 467.6	23892
 468.1	24003
 468.7	23964
 469.2	23913
 469.7	24038
 470.3	24045
 470.8	24115
 471.3	24120
 471.9	24113
 472.4	24189
 473.0	24258
 473.5	24306
 474.0	24329
 474.6	24362
 475.1	24379
 475.6	24479
 476.2	24518
 476.7	24507
 477.3	24594
 477.8	24555
 478.3	24496
 478.9	24727
 479.4	24635
 479.9	24672
 480.5	24682
 481.0	24740
 481.6	24777
 482.1	24871
 482.6	24881
 483.2	24919
 483.7	25053
 484.2	25027
 484.8	24891
 485.3	25014
 485.9	25112
 486.4	25101
 486.9	25154
 487.5	25131
 488.0	25161
 488.6	25247
 489.1	25275
 489.6	25344
 490.2	25365
 490.7	25339
 491.2	25315
 491.8	25391
 492.3	25344
 492.9	25406
 493.4	25419
 493.9	25443
 494.5	25439
 495.0	25497
 495.6	25419
 496.1	25427
 496.6	25478
 497.2	25392
 497.7	25365
 498.2	25441
 498.8	25455
 499.3	25374
 499.9	25431
 500.4	25436
 500.9	25427
 501.5	25440
 502.0	25537
 502.6	25543
 503.1	25660
 503.6	25657
 504.2	25647
 504.7	25699
 505.2	25801
 505.8	25834
 506.3	25981
 506.9	26050
 507.4	26076
 507.9	26101
 508.5	26201
 509.0	26300
 509.6	26439
 510.1	26451
 510.6	26545
 511.2	26618
 511.7	26665
 512.2	26780
 512.8	26849
 513.3	26849
 513.9	26877
 514.4	26961
 514.9	27070
 515.5	26975
 516.0	27063
 516.6	27019
 517.1	27071
 517.6	27034
 518.2	27003
 518.7	26915
 519.3	26953
 519.8	26960
 520.3	26924
 520.9	26859
 521.4	26845
 521.9	26870
 522.5	26758
 523.0	26747
 523.6	26773
 524.1	26609
 524.6	26647
 525.2	26671
 525.7	26709
 526.3	26649
 526.8	26755
 527.3	26711
 527.9	26755
 528.4	26764
 528.9	26851
 529.5	26892
 530.0	26921
 530.6	27007
 531.1	27059
 531.6	27023
 532.2	27186
 532.7	27207
 533.3	27303
 533.8	27481
 534.3	27578
 534.9	27638
 535.4	27652
 536.0	27786
 536.5	27880
 537.0	27912
 537.6	27981
 538.1	28087
 538.6	28155
 539.2	28145
 539.7	28210
 540.3	28339
 540.8	28338
 541.3	28331
 541.9	28393
 542.4	28401
 543.0	28488
 543.5	28457
 544.0	28441
 544.6	28481
 545.1	28499
 545.6	28528
 546.2	28507
 546.7	28403
 547.3	28469
 547.8	28435
 548.3	28474
 548.9	28369
 549.4	28361
 550.0	28324
 550.5	28380
 551.0	28414
 551.6	28358
 552.1	28364
 552.6	28365
 553.2	28309
 553.7	28296
 554.3	28333
 554.8	28407
 555.3	28261
 555.9	28339
 556.4	28326
 556.9	28440
 557.5	28473
 558.0	28446
 558.6	28451
 559.1	28535
 559.6	28536
 560.2	28571
 560.7	28597
 561.3	28586
 561.8	28588
 562.3	28735
 562.9	28745
 563.4	28796
 563.9	28799
 564.5	28833
 565.0	28842
 565.6	28875
 566.1	28884
 566.6	28900
 567.2	28897
 567.7	29003
 568.2	28947
 568.8	28951
 569.3	28934
 569.9	29001
 570.4	28989
 570.9	28980
 571.5	28979
 572.0	28984
 572.5	29049
 573.1	29005
 573.6	29085
 574.1	29081
 574.7	29098
 575.2	29090
 575.8	29151
 576.3	29247
 576.8	29234
 577.4	29270
 577.9	29311
 578.4	29307
 579.0	29338
 579.5	29475
 580.1	29421
 580.6	29482
 581.1	29587
 581.7	29640
 582.2	29613
 582.7	29676
 583.3	29743
 583.8	29745
 584.3	29721
 584.9	29796
 585.4	29814
 586.0	29817
 586.5	29873
 587.0	29867
 587.6	29965
 588.1	29931
 588.6	30008
 589.2	29961
 589.7	29994
 590.2	29991
 590.8	29983
 591.3	30007
 591.9	29943
 592.4	29988
 592.9	29915
 593.5	29888
 594.0	29857
 594.5	29861
 595.1	29805
 595.6	29753
 596.1	29788
 596.7	29729
 597.2	29746
 597.7	29659
 598.3	29650
 598.8	29598
 599.3	29580
 599.9	29519
 600.4	29489
 601.0	29484
 601.5	29459
 602.0	29432
 602.6	29380
 603.1	29394
 603.6	29398
 604.2	29488
 604.7	29411
 605.2	29490
 605.8	29411
 606.3	29451
 606.8	29537
 607.4	29539
 607.9	29608
 608.4	29573
 609.0	29635
 609.5	29705
 610.0	29709
 610.6	29824
 611.1	29776
 611.6	29851
 612.2	29885
 612.7	29973
 613.2	30011
 613.8	29983
 614.3	30060
 614.8	30140
 615.4	30133
 615.9	30275
 616.4	30378
 617.0	30377
 617.5	30504
 618.0	30582
 618.6	30587
 619.1	30689
 619.6	30819
 620.2	30889
 620.7	31026
 621.2	31053
 621.8	31144
 622.3	31236
 622.8	31259
 623.4	31335
 623.9	31430
 624.4	31447
 625.0	31471
 625.5	31482
 626.0	31507
 626.6	31578
 627.1	31555
 627.6	31513
 628.2	31470
 628.7	31514
 629.2	31488
 629.8	31499
 630.3	31490
 630.8	31451
 631.4	31388
 631.9	31371
 632.4	31235
 632.9	31206
 633.5	31162
 634.0	31085
 634.5	31097
 635.1	31005
 635.6	30959
 636.1	30891
 636.7	30877
 637.2	30842
 637.7	30695
 638.3	30762
 638.8	30712
 639.3	30705
 639.8	30609
 640.4	30598
 640.9	30594
 641.4	30489
 642.0	30452
 642.5	30453
 643.0	30409
 643.6	30491
 644.1	30439
 644.6	30451
 645.1	30462
 645.7	30467
 646.2	30416
 646.7	30439
 647.3	30463
 647.8	30491
 648.3	30470
 648.9	30526
 649.4	30456
 649.9	30539
 650.4	30569
 651.0	30639
 651.5	30673
 652.0	30748
 652.6	30729
 653.1	30836
 653.6	30775
 654.1	30871
 654.7	30862
 655.2	30978
 655.7	31039
 656.3	31083
 656.8	31063
 657.3	31143
 657.8	31121
 658.4	31154
 658.9	31201
 659.4	31296
 659.9	31310
 660.5	31305
 661.0	31364
 661.5	31419
 662.1	31398
 662.6	31417
 663.1	31396
 663.6	31493
 664.2	31441
 664.7	31424
 665.2	31364
 665.7	31481
 666.3	31441
 666.8	31438
 667.3	31433
 667.8	31400
 668.4	31410
 668.9	31414
 669.4	31383
 669.9	31392
 670.5	31317
 671.0	31324
 671.5	31272
 672.0	31303
 672.6	31290
 673.1	31315
 673.6	31201
 674.1	31222
 674.7	31197
 675.2	31233
 675.7	31088
 676.2	31071
 676.8	31126
 677.3	31119
 677.8	31025
 678.3	31112
 678.9	31036
 679.4	30954
 679.9	31013
 680.4	30991
 681.0	30941
 681.5	30966
 682.0	30911
 682.5	30940
 683.1	30836
 683.6	30858
 684.1	30796
 684.6	30894
 685.1	30830
 685.7	30842
 686.2	30821
 686.7	30767
 687.2	30759
 687.8	30826
 688.3	30765
 688.8	30785
 689.3	30721
 689.8	30757
 690.4	30737
 690.9	30755
 691.4	30779
 691.9	30776
 692.4	30759
 693.0	30825
 693.5	30788
 694.0	30778
 694.5	30780
 695.1	30759
 695.6	30715
 696.1	30790
 696.6	30779
 697.1	30798
 697.7	30823
 698.2	30755
 698.7	30783
 699.2	30743
 699.7	30749
 700.3	30701
 700.8	30677
 701.3	30761
 701.8	30721
 702.3	30659
 702.8	30658
 703.4	30639
 703.9	30610
 704.4	30569
 704.9	30529
 705.4	30518
 706.0	30578
 706.5	30549
 707.0	30445
 707.5	30415
 708.0	30423
 708.5	30349
 709.1	30399
 709.6	30339
 710.1	30271
 710.6	30227
 711.1	30188
 711.7	30174
 712.2	30139
 712.7	30122
 713.2	30060
 713.7	30030
 714.2	29945
 714.8	30004
 715.3	29913
 715.8	29873
 716.3	29849
 716.8	29749
 717.3	29711
 717.8	29783
 718.4	29773
 718.9	29690
 719.4	29775
 719.9	29662
 720.4	29707
 720.9	29731
 721.4	29725
 722.0	29759
 722.5	29761
 723.0	29767
 723.5	29793
 724.0	29773
 724.5	29771
 725.0	29826
 725.6	29774
 726.1	29855
 726.6	29980
 727.1	29929
 727.6	29999
 728.1	30033
 728.6	30005
 729.1	30015
 729.7	30011
 730.2	30048
 730.7	30085
 731.2	30131
 731.7	30131
 732.2	30155
 732.7	30136
 733.2	30193
 733.8	30172
 734.3	30206
 734.8	30203
 735.3	30245
 735.8	30247
 736.3	30242
 736.8	30307
 737.3	30367
 737.8	30323
 738.4	30327
 738.9	30295
 739.4	30392
 739.9	30379
 740.4	30417
 740.9	30390
 741.4	30402
 741.9	30398
 742.4	30417
 742.9	30401
 743.4	30480
 744.0	30385
 744.5	30377
 745.0	30385
 745.5	30453
 746.0	30420
 746.5	30423
 747.0	30355
 747.5	30325
 748.0	30302
 748.5	30313
 749.0	30305
 749.5	30375
 750.0	30206
 750.5	30236
 751.1	30217
 751.6	30209
 752.1	30167
 752.6	30120
 753.1	30142
 753.6	30057
 754.1	30010
 754.6	30033
 755.1	29959
 755.6	29943
 756.1	29837
 756.6	29911
 757.1	29858
 757.6	29811
 758.1	29751
 758.6	29719
 759.1	29624
 759.6	29641
 760.1	29557
 760.7	29485
 761.2	29538
 761.7	29473
 762.2	29429
 762.7	29431
 763.2	29292
 763.7	29338
 764.2	29237
 764.7	29209
 765.2	29204
 765.7	29137
 766.2	29071
 766.7	29078
 767.2	28992
 767.7	28959
 768.2	28914
 768.7	28842
 769.2	28803
 769.7	28819
 770.2	28764
 770.7	28739
 771.2	28691
 771.7	28650
 772.2	28634
 772.7	28660
 773.2	28619
 773.7	28549
 774.2	28493
 774.7	28505
 775.2	28467
 775.7	28437
 776.2	28409
 776.7	28428
 777.2	28332
 777.7	28394
 778.2	28358
 778.7	28393
 779.2	28383
 779.7	28403
 780.2	28235
 780.7	28287
 781.2	28272
 781.7	28327
 782.2	28251
 782.6	28310
 783.1	28305
 783.6	28255
 784.1	28213
 784.6	28204
 785.1	28207
 785.6	28197
 786.1	28205
 786.6	28216
 787.1	28158
 787.6	28145
 788.1	28116
 788.6	28098
 789.1	28076
 789.6	28087
 790.1	28101
 790.6	28078
 791.1	27967
 791.6	27963
 792.0	27944
 792.5	27961
 793.0	27923
 793.5	27898
 794.0	27815
 794.5	27879
 795.0	27814
 795.5	27782
 796.0	27757
 796.5	27685
 797.0	27675
 797.5	27691
 798.0	27506
 798.4	27504
 798.9	27466
 799.4	27437
 799.9	27415
 800.4	27241
 800.9	27304
 801.4	27319
 801.9	27245
 802.4	27122
 802.9	27145
 803.3	27101
 803.8	27035
 804.3	26945
 804.8	26955
 805.3	26882
 805.8	26809
 806.3	26763
 806.8	26714
 807.2	26665
 807.7	26599
 808.2	26579
 808.7	26463
 809.2	26433
 809.7	26329
 810.2	26357
 810.7	26255
 811.1	26229
 811.6	26191
 812.1	26108
 812.6	26031
 813.1	26046
 813.6	26025
 814.1	25981
 814.5	25908
 815.0	25893
 815.5	25817
 816.0	25745
 816.5	25780
 817.0	25702
 817.4	25659
 817.9	25663
 818.4	25558
 818.9	25624
 819.4	25553
 819.9	25501
 820.3	25450
 820.8	25429
 821.3	25411
 821.8	25404
 822.3	25305
 822.7	25267
 823.2	25314
 823.7	25246
 824.2	25229
 824.7	25190
 825.2	25185
 825.6	25142
 826.1	25111
 826.6	25155
 827.1	25119
 827.6	25097
 828.0	25026
 828.5	24985
 829.0	25005
 829.5	24939
 829.9	24923
 830.4	24976
 830.9	24935
 831.4	24950
 831.9	24885
 832.3	24953
 832.8	24876
 833.3	24871
 833.8	24933
 834.2	24919
 834.7	24755
 835.2	24837
 835.7	24819
 836.1	24818
 836.6	24781
 837.1	24775
 837.6	24767
 838.0	24793
 838.5	24805
 839.0	24793
 839.5	24779
 839.9	24691
 840.4	24688
 840.9	24645
 841.4	24671
 841.8	24689
 842.3	24694
 842.8	24691
 843.3	24684
 843.7	24565
 844.2	24543
 844.7	24619
 845.1	24583
 845.6	24502
 846.1	24507
 846.6	24527
 847.0	24418
 847.5	24459
 848.0	24426
 848.4	24453
 848.9	24394
 849.4	24363
 849.8	24363
 850.3	24355
 850.8	24389
 851.3	24335
 851.7	24312
 852.2	24302
 852.7	24279
 853.1	24251
 853.6	24176
 854.1	24199
 854.5	24151
 855.0	24125
 855.5	24095
 855.9	24139
 856.4	24105
 856.9	24007
 857.3	24045
 857.8	23991
 858.3	23996
 858.7	23927
 859.2	23940
 859.7	23927
 860.1	23969
 860.6	23919
 861.1	23839
 861.5	23857
 862.0	23835
 862.4	23791
 862.9	23728
 863.4	23742
 863.8	23721
 864.3	23694
 864.8	23597
 865.2	23615
 865.7	23612
 866.1	23607
 866.6	23504
 867.1	23569
 867.5	23539
 868.0	23494
 868.5	23433
 868.9	23413
 869.4	23507
 869.8	23452
 870.3	23391
 870.8	23460
 871.2	23407
 871.7	23400
 872.1	23343
 872.6	23386
 873.0	23355
 873.5	23424
 874.0	23405
 874.4	23268
 874.9	23275
 875.3	23209
 875.8	23074
 876.2	22831
 876.7	22644
 877.2	22272
 877.6	21831
 878.1	21398
