#xlabel Wavelength (nm)
#ylabel Spectrometer Array Counts
#title Exposure time is 11000 ms
## lambda	counts
 349.8	18721
 350.3	18966
 350.8	19207
 351.3	19402
 351.9	19511
 352.4	19648
 352.9	19732
 353.4	19713
 354.0	19739
 354.5	19798
 355.0	19807
 355.5	19837
 356.0	19806
 356.6	19778
 357.1	19839
 357.6	19818
 358.1	19855
 358.7	19794
 359.2	19814
 359.7	19840
 360.2	19880
 360.8	19853
 361.3	19955
 361.8	19899
 362.3	19937
 362.9	19894
 363.4	19977
 363.9	19984
 364.4	20012
 364.9	19917
 365.5	19999
 366.0	19989
 366.5	19941
 367.0	19990
 367.6	20022
 368.1	20025
 368.6	19964
 369.1	20026
 369.7	20077
 370.2	20004
 370.7	20008
 371.2	20059
 371.8	20118
 372.3	20041
 372.8	20129
 373.3	20147
 373.9	20086
 374.4	20115
 374.9	20171
 375.5	20060
 376.0	20201
 376.5	20161
 377.0	20198
 377.6	20148
 378.1	20241
 378.6	20182
 379.1	20188
 379.7	20177
 380.2	20267
 380.7	20273
 381.2	20235
 381.8	20235
 382.3	20287
 382.8	20270
 383.4	20323
 383.9	20274
 384.4	20436
 384.9	20343
 385.5	20364
 386.0	20368
 386.5	20450
 387.1	20379
 387.6	20404
 388.1	20413
 388.6	20438
 389.2	20432
 389.7	20464
 390.2	20453
 390.8	20555
 391.3	20536
 391.8	20549
 392.3	20538
 392.9	20556
 393.4	20557
 393.9	20643
 394.5	20659
 395.0	20619
 395.5	20650
 396.0	20661
 396.6	20641
 397.1	20744
 397.6	20752
 398.2	20753
 398.7	20755
 399.2	20856
 399.8	20733
 400.3	20805
 400.8	20859
 401.3	20827
 401.9	20849
 402.4	20880
 402.9	20871
 403.5	20905
 404.0	20909
 404.5	20865
 405.1	20883
 405.6	21002
 406.1	20987
 406.7	20999
 407.2	21026
 407.7	21117
 408.2	21132
 408.8	21149
 409.3	21193
 409.8	21255
 410.4	21231
 410.9	21254
 411.4	21206
 412.0	21289
 412.5	21354
 413.0	21307
 413.6	21362
 414.1	21333
 414.6	21377
 415.2	21436
 415.7	21383
 416.2	21446
 416.8	21437
 417.3	21440
 417.8	21471
 418.4	21577
 418.9	21519
 419.4	21674
 420.0	21560
 420.5	21637
 421.0	21587
 421.5	21686
 422.1	21669
 422.6	21737
 423.1	21774
 423.7	21742
 424.2	21737
 424.7	21778
 425.3	21768
 425.8	21801
 426.3	21785
 426.9	21859
 427.4	21811
 427.9	21933
 428.5	21881
 429.0	21941
 429.6	21915
 430.1	22019
 430.6	22038
 431.2	22001
 431.7	22134
 432.2	22124
 432.8	22122
 433.3	22261
 433.8	22295
 434.4	22291
 434.9	22330
 435.4	22410
 436.0	22404
 436.5	22422
 437.0	22514
 437.6	22505
 438.1	22575
 438.6	22592
 439.2	22626
 439.7	22619
 440.2	22572
 440.8	22602
 441.3	22599
 441.8	22609
 442.4	22583
 442.9	22615
 443.5	22644
 444.0	22642
 444.5	22669
 445.1	22581
 445.6	22630
 446.1	22669
 446.7	22701
 447.2	22732
 447.7	22738
 448.3	22833
 448.8	22826
 449.3	22893
 449.9	22875
 450.4	23018
 450.9	23086
 451.5	23128
 452.0	23138
 452.6	23191
 453.1	23298
 453.6	23345
 454.2	23273
 454.7	23383
 455.2	23439
 455.8	23515
 456.3	23482
 456.8	23627
 457.4	23573
 457.9	23599
 458.5	23649
 459.0	23623
 459.5	23673
 460.1	23629
 460.6	23681
 461.1	23663
 461.7	23717
 462.2	23667
 462.7	23705
 463.3	23638
 463.8	23710
 464.4	23781
 464.9	23731
 465.4	23817
 466.0	23730
 466.5	23815
 467.0	23760
 467.6	23856
 468.1	23967
 468.7	23927
 469.2	23881
 469.7	23999
 470.3	24008
 470.8	24075
 471.3	24080
 471.9	24074
 472.4	24153
 473.0	24219
 473.5	24267
 474.0	24293
 474.6	24321
 475.1	24342
 475.6	24445
 476.2	24474
 476.7	24469
 477.3	24552
 477.8	24513
 478.3	24460
 478.9	24690
 479.4	24601
 479.9	24633
 480.5	24647
 481.0	24702
 481.6	24746
 482.1	24837
 482.6	24841
 483.2	24888
 483.7	25016
 484.2	24991
 484.8	24852
 485.3	24975
 485.9	25071
 486.4	25067
 486.9	25112
 487.5	25091
 488.0	25128
 488.6	25203
 489.1	25241
 489.6	25308
 490.2	25325
 490.7	25303
 491.2	25281
 491.8	25354
 492.3	25307
 492.9	25373
 493.4	25381
 493.9	25405
 494.5	25405
 495.0	25465
 495.6	25376
 496.1	25385
 496.6	25437
 497.2	25354
 497.7	25324
 498.2	25402
 498.8	25413
 499.3	25335
 499.9	25395
 500.4	25398
 500.9	25393
 501.5	25404
 502.0	25499
 502.6	25501
 503.1	25621
 503.6	25617
 504.2	25609
 504.7	25663
 505.2	25763
 505.8	25791
 506.3	25938
 506.9	26003
 507.4	26028
 507.9	26065
 508.5	26155
 509.0	26258
 509.6	26391
 510.1	26420
 510.6	26507
 511.2	26577
 511.7	26625
 512.2	26737
 512.8	26806
 513.3	26809
 513.9	26831
 514.4	26922
 514.9	27031
 515.5	26934
 516.0	27021
 516.6	26980
 517.1	27031
 517.6	26991
 518.2	26958
 518.7	26874
 519.3	26911
 519.8	26918
 520.3	26883
 520.9	26819
 521.4	26794
 521.9	26831
 522.5	26721
 523.0	26715
 523.6	26735
 524.1	26565
 524.6	26606
 525.2	26627
 525.7	26669
 526.3	26606
 526.8	26712
 527.3	26678
 527.9	26709
 528.4	26723
 528.9	26811
 529.5	26850
 530.0	26875
 530.6	26971
 531.1	27016
 531.6	26980
 532.2	27145
 532.7	27169
 533.3	27262
 533.8	27438
 534.3	27535
 534.9	27591
 535.4	27609
 536.0	27743
 536.5	27837
 537.0	27863
 537.6	27941
 538.1	28038
 538.6	28113
 539.2	28100
 539.7	28163
 540.3	28299
 540.8	28295
 541.3	28286
 541.9	28347
 542.4	28359
 543.0	28440
 543.5	28417
 544.0	28396
 544.6	28436
 545.1	28460
 545.6	28479
 546.2	28463
 546.7	28363
 547.3	28427
 547.8	28393
 548.3	28431
 548.9	28328
 549.4	28321
 550.0	28281
 550.5	28345
 551.0	28375
 551.6	28318
 552.1	28323
 552.6	28326
 553.2	28271
 553.7	28255
 554.3	28287
 554.8	28365
 555.3	28213
 555.9	28291
 556.4	28277
 556.9	28396
 557.5	28435
 558.0	28403
 558.6	28399
 559.1	28482
 559.6	28491
 560.2	28523
 560.7	28553
 561.3	28537
 561.8	28541
 562.3	28692
 562.9	28687
 563.4	28754
 563.9	28755
 564.5	28789
 565.0	28795
 565.6	28830
 566.1	28847
 566.6	28853
 567.2	28851
 567.7	28953
 568.2	28895
 568.8	28899
 569.3	28894
 569.9	28961
 570.4	28940
 570.9	28929
 571.5	28936
 572.0	28945
 572.5	29005
 573.1	28963
 573.6	29041
 574.1	29035
 574.7	29051
 575.2	29042
 575.8	29107
 576.3	29208
 576.8	29189
 577.4	29223
 577.9	29265
 578.4	29261
 579.0	29291
 579.5	29435
 580.1	29384
 580.6	29435
 581.1	29539
 581.7	29585
 582.2	29566
 582.7	29635
 583.3	29695
 583.8	29700
 584.3	29676
 584.9	29753
 585.4	29771
 586.0	29774
 586.5	29833
 587.0	29817
 587.6	29909
 588.1	29884
 588.6	29964
 589.2	29913
 589.7	29943
 590.2	29950
 590.8	29931
 591.3	29958
 591.9	29895
 592.4	29946
 592.9	29866
 593.5	29842
 594.0	29825
 594.5	29817
 595.1	29759
 595.6	29704
 596.1	29738
 596.7	29685
 597.2	29698
 597.7	29611
 598.3	29605
 598.8	29559
 599.3	29535
 599.9	29471
 600.4	29447
 601.0	29429
 601.5	29412
 602.0	29389
 602.6	29339
 603.1	29349
 603.6	29351
 604.2	29447
 604.7	29363
 605.2	29446
 605.8	29367
 606.3	29405
 606.8	29487
 607.4	29492
 607.9	29561
 608.4	29525
 609.0	29591
 609.5	29659
 610.0	29658
 610.6	29782
 611.1	29727
 611.6	29809
 612.2	29839
 612.7	29924
 613.2	29964
 613.8	29927
 614.3	30011
 614.8	30091
 615.4	30087
 615.9	30227
 616.4	30334
 617.0	30330
 617.5	30459
 618.0	30539
 618.6	30545
 619.1	30635
 619.6	30765
 620.2	30846
 620.7	30975
 621.2	31011
 621.8	31091
 622.3	31179
 622.8	31211
 623.4	31289
 623.9	31381
 624.4	31395
 625.0	31426
 625.5	31436
 626.0	31459
 626.6	31525
 627.1	31508
 627.6	31458
 628.2	31432
 628.7	31465
 629.2	31441
 629.8	31453
 630.3	31438
 630.8	31400
 631.4	31346
 631.9	31327
 632.4	31182
 632.9	31159
 633.5	31120
 634.0	31042
 634.5	31057
 635.1	30957
 635.6	30910
 636.1	30845
 636.7	30830
 637.2	30797
 637.7	30648
 638.3	30718
 638.8	30669
 639.3	30659
 639.8	30566
 640.4	30553
 640.9	30551
 641.4	30447
 642.0	30405
 642.5	30405
 643.0	30364
 643.6	30446
 644.1	30388
 644.6	30400
 645.1	30414
 645.7	30417
 646.2	30363
 646.7	30393
 647.3	30417
 647.8	30448
 648.3	30419
 648.9	30482
 649.4	30403
 649.9	30490
 650.4	30522
 651.0	30591
 651.5	30627
 652.0	30707
 652.6	30683
 653.1	30795
 653.6	30730
 654.1	30823
 654.7	30815
 655.2	30933
 655.7	30986
 656.3	31031
 656.8	31020
 657.3	31095
 657.8	31077
 658.4	31107
 658.9	31157
 659.4	31241
 659.9	31259
 660.5	31255
 661.0	31319
 661.5	31368
 662.1	31344
 662.6	31373
 663.1	31347
 663.6	31433
 664.2	31393
 664.7	31383
 665.2	31320
 665.7	31430
 666.3	31389
 666.8	31383
 667.3	31385
 667.8	31353
 668.4	31357
 668.9	31365
 669.4	31335
 669.9	31340
 670.5	31266
 671.0	31280
 671.5	31227
 672.0	31257
 672.6	31236
 673.1	31260
 673.6	31162
 674.1	31177
 674.7	31153
 675.2	31186
 675.7	31043
 676.2	31017
 676.8	31072
 677.3	31061
 677.8	30980
 678.3	31062
 678.9	30986
 679.4	30909
 679.9	30961
 680.4	30940
 681.0	30891
 681.5	30920
 682.0	30866
 682.5	30891
 683.1	30794
 683.6	30815
 684.1	30747
 684.6	30845
 685.1	30784
 685.7	30795
 686.2	30772
 686.7	30725
 687.2	30715
 687.8	30772
 688.3	30719
 688.8	30735
 689.3	30671
 689.8	30708
 690.4	30689
 690.9	30707
 691.4	30728
 691.9	30738
 692.4	30714
 693.0	30782
 693.5	30742
 694.0	30739
 694.5	30735
 695.1	30712
 695.6	30671
 696.1	30739
 696.6	30733
 697.1	30750
 697.7	30779
 698.2	30712
 698.7	30736
 699.2	30697
 699.7	30705
 700.3	30661
 700.8	30630
 701.3	30714
 701.8	30675
 702.3	30614
 702.8	30612
 703.4	30593
 703.9	30569
 704.4	30533
 704.9	30489
 705.4	30478
 706.0	30531
 706.5	30498
 707.0	30401
 707.5	30369
 708.0	30372
 708.5	30303
 709.1	30345
 709.6	30293
 710.1	30217
 710.6	30179
 711.1	30142
 711.7	30137
 712.2	30095
 712.7	30075
 713.2	30017
 713.7	29981
 714.2	29906
 714.8	29960
 715.3	29870
 715.8	29830
 716.3	29809
 716.8	29704
 717.3	29665
 717.8	29740
 718.4	29729
 718.9	29649
 719.4	29733
 719.9	29620
 720.4	29663
 720.9	29689
 721.4	29677
 722.0	29710
 722.5	29711
 723.0	29716
 723.5	29748
 724.0	29731
 724.5	29727
 725.0	29783
 725.6	29739
 726.1	29812
 726.6	29938
 727.1	29887
 727.6	29947
 728.1	29985
 728.6	29957
 729.1	29975
 729.7	29967
 730.2	30007
 730.7	30040
 731.2	30091
 731.7	30084
 732.2	30109
 732.7	30096
 733.2	30147
 733.8	30123
 734.3	30161
 734.8	30153
 735.3	30194
 735.8	30199
 736.3	30196
 736.8	30258
 737.3	30321
 737.8	30283
 738.4	30287
 738.9	30247
 739.4	30349
 739.9	30344
 740.4	30371
 740.9	30347
 741.4	30359
 741.9	30356
 742.4	30375
 742.9	30359
 743.4	30435
 744.0	30343
 744.5	30342
 745.0	30341
 745.5	30407
 746.0	30371
 746.5	30381
 747.0	30308
 747.5	30288
 748.0	30253
 748.5	30268
 749.0	30263
 749.5	30331
 750.0	30161
 750.5	30195
 751.1	30178
 751.6	30163
 752.1	30132
 752.6	30077
 753.1	30098
 753.6	30015
 754.1	29966
 754.6	29985
 755.1	29919
 755.6	29903
 756.1	29801
 756.6	29865
 757.1	29815
 757.6	29774
 758.1	29703
 758.6	29683
 759.1	29583
 759.6	29602
 760.1	29519
 760.7	29441
 761.2	29495
 761.7	29430
 762.2	29385
 762.7	29393
 763.2	29246
 763.7	29295
 764.2	29198
 764.7	29166
 765.2	29160
 765.7	29092
 766.2	29033
 766.7	29035
 767.2	28952
 767.7	28923
 768.2	28871
 768.7	28801
 769.2	28764
 769.7	28779
 770.2	28719
 770.7	28706
 771.2	28644
 771.7	28604
 772.2	28595
 772.7	28618
 773.2	28577
 773.7	28505
 774.2	28447
 774.7	28468
 775.2	28423
 775.7	28396
 776.2	28366
 776.7	28383
 777.2	28292
 777.7	28352
 778.2	28319
 778.7	28355
 779.2	28343
 779.7	28359
 780.2	28195
 780.7	28240
 781.2	28236
 781.7	28284
 782.2	28209
 782.6	28273
 783.1	28262
 783.6	28217
 784.1	28170
 784.6	28157
 785.1	28162
 785.6	28157
 786.1	28171
 786.6	28178
 787.1	28115
 787.6	28100
 788.1	28078
 788.6	28057
 789.1	28036
 789.6	28045
 790.1	28059
 790.6	28040
 791.1	27929
 791.6	27919
 792.0	27908
 792.5	27920
 793.0	27877
 793.5	27853
 794.0	27780
 794.5	27839
 795.0	27781
 795.5	27741
 796.0	27724
 796.5	27643
 797.0	27632
 797.5	27649
 798.0	27466
 798.4	27468
 798.9	27424
 799.4	27399
 799.9	27378
 800.4	27207
 800.9	27272
 801.4	27283
 801.9	27201
 802.4	27088
 802.9	27109
 803.3	27065
 803.8	26988
 804.3	26901
 804.8	26921
 805.3	26837
 805.8	26771
 806.3	26730
 806.8	26674
 807.2	26627
 807.7	26561
 808.2	26535
 808.7	26429
 809.2	26397
 809.7	26291
 810.2	26316
 810.7	26213
 811.1	26191
 811.6	26158
 812.1	26067
 812.6	25989
 813.1	26007
 813.6	25994
 814.1	25949
 814.5	25870
 815.0	25860
 815.5	25785
 816.0	25710
 816.5	25739
 817.0	25661
 817.4	25623
 817.9	25629
 818.4	25521
 818.9	25585
 819.4	25509
 819.9	25463
 820.3	25417
 820.8	25390
 821.3	25376
 821.8	25360
 822.3	25275
 822.7	25227
 823.2	25279
 823.7	25211
 824.2	25192
 824.7	25153
 825.2	25149
 825.6	25110
 826.1	25076
 826.6	25119
 827.1	25079
 827.6	25061
 828.0	24988
 828.5	24948
 829.0	24969
 829.5	24897
 829.9	24888
 830.4	24932
 830.9	24905
 831.4	24914
 831.9	24851
 832.3	24911
 832.8	24839
 833.3	24835
 833.8	24903
 834.2	24879
 834.7	24716
 835.2	24794
 835.7	24788
 836.1	24772
 836.6	24742
 837.1	24733
 837.6	24729
 838.0	24754
 838.5	24765
 839.0	24762
 839.5	24743
 839.9	24650
 840.4	24656
 840.9	24609
 841.4	24637
 841.8	24653
 842.3	24658
 842.8	24662
 843.3	24650
 843.7	24535
 844.2	24514
 844.7	24584
 845.1	24549
 845.6	24457
 846.1	24469
 846.6	24497
 847.0	24382
 847.5	24427
 848.0	24394
 848.4	24417
 848.9	24367
 849.4	24330
 849.8	24333
 850.3	24322
 850.8	24353
 851.3	24300
 851.7	24277
 852.2	24267
 852.7	24247
 853.1	24213
 853.6	24142
 854.1	24170
 854.5	24117
 855.0	24088
 855.5	24059
 855.9	24109
 856.4	24069
 856.9	23975
 857.3	24013
 857.8	23953
 858.3	23960
 858.7	23893
 859.2	23903
 859.7	23889
 860.1	23933
 860.6	23884
 861.1	23804
 861.5	23823
 862.0	23805
 862.4	23757
 862.9	23695
 863.4	23709
 863.8	23693
 864.3	23669
 864.8	23569
 865.2	23590
 865.7	23587
 866.1	23587
 866.6	23483
 867.1	23548
 867.5	23511
 868.0	23475
 868.5	23409
 868.9	23387
 869.4	23481
 869.8	23422
 870.3	23367
 870.8	23423
 871.2	23362
 871.7	23347
 872.1	23283
 872.6	23307
 873.0	23266
 873.5	23321
 874.0	23287
 874.4	23146
 874.9	23153
 875.3	23083
 875.8	22957
 876.2	22730
 876.7	22559
 877.2	22212
 877.6	21797
 878.1	21391
