#xlabel Wavelength (nm)
#ylabel Spectrometer Array Counts
#title Exposure time is 11000 ms
## lambda	counts
 349.8	18515
 350.3	18775
 350.8	19030
 351.3	19230
 351.9	19341
 352.4	19463
 352.9	19543
 353.4	19513
 354.0	19515
 354.5	19563
 355.0	19569
 355.5	19581
 356.0	19536
 356.6	19503
 357.1	19551
 357.6	19527
 358.1	19553
 358.7	19491
 359.2	19505
 359.7	19522
 360.2	19565
 360.8	19530
 361.3	19627
 361.8	19564
 362.3	19595
 362.9	19541
 363.4	19622
 363.9	19618
 364.4	19648
 364.9	19547
 365.5	19621
 366.0	19599
 366.5	19547
 367.0	19592
 367.6	19618
 368.1	19611
 368.6	19539
 369.1	19599
 369.7	19645
 370.2	19557
 370.7	19558
 371.2	19596
 371.8	19646
 372.3	19565
 372.8	19639
 373.3	19651
 373.9	19583
 374.4	19603
 374.9	19650
 375.5	19526
 376.0	19651
 376.5	19611
 377.0	19625
 377.6	19565
 378.1	19646
 378.6	19565
 379.1	19564
 379.7	19541
 380.2	19614
 380.7	19611
 381.2	19558
 381.8	19547
 382.3	19585
 382.8	19559
 383.4	19601
 383.9	19545
 384.4	19704
 384.9	19604
 385.5	19613
 386.0	19614
 386.5	19681
 387.1	19607
 387.6	19624
 388.1	19621
 388.6	19639
 389.2	19611
 389.7	19637
 390.2	19602
 390.8	19681
 391.3	19642
 391.8	19631
 392.3	19607
 392.9	19594
 393.4	19575
 393.9	19641
 394.5	19637
 395.0	19573
 395.5	19583
 396.0	19577
 396.6	19538
 397.1	19631
 397.6	19619
 398.2	19616
 398.7	19609
 399.2	19707
 399.8	19566
 400.3	19633
 400.8	19678
 401.3	19641
 401.9	19654
 402.4	19667
 402.9	19650
 403.5	19671
 404.0	19652
 404.5	19587
 405.1	19582
 405.6	19679
 406.1	19639
 406.7	19634
 407.2	19635
 407.7	19702
 408.2	19688
 408.8	19678
 409.3	19703
 409.8	19742
 410.4	19691
 410.9	19682
 411.4	19617
 412.0	19675
 412.5	19727
 413.0	19658
 413.6	19695
 414.1	19647
 414.6	19677
 415.2	19709
 415.7	19638
 416.2	19683
 416.8	19653
 417.3	19633
 417.8	19647
 418.4	19730
 418.9	19653
 419.4	19783
 420.0	19653
 420.5	19716
 421.0	19646
 421.5	19731
 422.1	19701
 422.6	19749
 423.1	19775
 423.7	19724
 424.2	19708
 424.7	19737
 425.3	19707
 425.8	19723
 426.3	19693
 426.9	19757
 427.4	19693
 427.9	19795
 428.5	19721
 429.0	19750
 429.6	19697
 430.1	19769
 430.6	19750
 431.2	19673
 431.7	19765
 432.2	19715
 432.8	19675
 433.3	19771
 433.8	19762
 434.4	19722
 434.9	19720
 435.4	19759
 436.0	19722
 436.5	19701
 437.0	19774
 437.6	19736
 438.1	19786
 438.6	19785
 439.2	19804
 439.7	19783
 440.2	19729
 440.8	19755
 441.3	19753
 441.8	19759
 442.4	19720
 442.9	19746
 443.5	19781
 444.0	19770
 444.5	19796
 445.1	19705
 445.6	19734
 446.1	19751
 446.7	19764
 447.2	19770
 447.7	19743
 448.3	19806
 448.8	19749
 449.3	19776
 449.9	19698
 450.4	19783
 450.9	19807
 451.5	19796
 452.0	19747
 452.6	19745
 453.1	19785
 453.6	19784
 454.2	19651
 454.7	19714
 455.2	19723
 455.8	19761
 456.3	19681
 456.8	19812
 457.4	19718
 457.9	19722
 458.5	19762
 459.0	19721
 459.5	19755
 460.1	19700
 460.6	19754
 461.1	19729
 461.7	19783
 462.2	19729
 462.7	19770
 463.3	19691
 463.8	19762
 464.4	19829
 464.9	19762
 465.4	19829
 466.0	19718
 466.5	19782
 467.0	19701
 467.6	19768
 468.1	19849
 468.7	19766
 469.2	19687
 469.7	19769
 470.3	19735
 470.8	19763
 471.3	19729
 471.9	19673
 472.4	19719
 473.0	19755
 473.5	19763
 474.0	19747
 474.6	19740
 475.1	19713
 475.6	19778
 476.2	19782
 476.7	19749
 477.3	19803
 477.8	19734
 478.3	19647
 478.9	19855
 479.4	19725
 479.9	19732
 480.5	19705
 481.0	19720
 481.6	19735
 482.1	19785
 482.6	19754
 483.2	19752
 483.7	19864
 484.2	19781
 484.8	19603
 485.3	19692
 485.9	19768
 486.4	19719
 486.9	19726
 487.5	19675
 488.0	19673
 488.6	19727
 489.1	19729
 489.6	19772
 490.2	19767
 490.7	19715
 491.2	19675
 491.8	19730
 492.3	19675
 492.9	19726
 493.4	19735
 493.9	19744
 494.5	19747
 495.0	19818
 495.6	19731
 496.1	19742
 496.6	19807
 497.2	19720
 497.7	19683
 498.2	19773
 498.8	19803
 499.3	19711
 499.9	19769
 500.4	19761
 500.9	19737
 501.5	19720
 502.0	19784
 502.6	19751
 503.1	19825
 503.6	19777
 504.2	19717
 504.7	19709
 505.2	19763
 505.8	19739
 506.3	19804
 506.9	19789
 507.4	19739
 507.9	19694
 508.5	19708
 509.0	19732
 509.6	19786
 510.1	19733
 510.6	19758
 511.2	19764
 511.7	19730
 512.2	19784
 512.8	19792
 513.3	19735
 513.9	19719
 514.4	19770
 514.9	19843
 515.5	19731
 516.0	19807
 516.6	19773
 517.1	19824
 517.6	19806
 518.2	19789
 518.7	19724
 519.3	19791
 519.8	19842
 520.3	19847
 520.9	19798
 521.4	19809
 521.9	19876
 522.5	19803
 523.0	19839
 523.6	19877
 524.1	19726
 524.6	19783
 525.2	19805
 525.7	19839
 526.3	19749
 526.8	19845
 527.3	19787
 527.9	19793
 528.4	19775
 528.9	19828
 529.5	19833
 530.0	19803
 530.6	19847
 531.1	19837
 531.6	19726
 532.2	19841
 532.7	19779
 533.3	19796
 533.8	19913
 534.3	19922
 534.9	19908
 535.4	19828
 536.0	19889
 536.5	19917
 537.0	19862
 537.6	19869
 538.1	19912
 538.6	19911
 539.2	19837
 539.7	19841
 540.3	19935
 540.8	19888
 541.3	19839
 541.9	19867
 542.4	19859
 543.0	19922
 543.5	19883
 544.0	19855
 544.6	19906
 545.1	19910
 545.6	19953
 546.2	19928
 546.7	19837
 547.3	19898
 547.8	19879
 548.3	19935
 548.9	19849
 549.4	19854
 550.0	19820
 550.5	19891
 551.0	19947
 551.6	19881
 552.1	19903
 552.6	19907
 553.2	19880
 553.7	19861
 554.3	19894
 554.8	19966
 555.3	19812
 555.9	19883
 556.4	19834
 556.9	19925
 557.5	19949
 558.0	19896
 558.6	19869
 559.1	19940
 559.6	19912
 560.2	19901
 560.7	19895
 561.3	19863
 561.8	19829
 562.3	19940
 562.9	19918
 563.4	19945
 563.9	19926
 564.5	19931
 565.0	19905
 565.6	19926
 566.1	19926
 566.6	19923
 567.2	19903
 567.7	20012
 568.2	19909
 568.8	19920
 569.3	19889
 569.9	19965
 570.4	19948
 570.9	19911
 571.5	19903
 572.0	19887
 572.5	19944
 573.1	19885
 573.6	19932
 574.1	19921
 574.7	19911
 575.2	19877
 575.8	19911
 576.3	19979
 576.8	19930
 577.4	19935
 577.9	19941
 578.4	19889
 579.0	19891
 579.5	19982
 580.1	19897
 580.6	19894
 581.1	19959
 581.7	19965
 582.2	19893
 582.7	19937
 583.3	19969
 583.8	19935
 584.3	19875
 584.9	19927
 585.4	19920
 586.0	19884
 586.5	19913
 587.0	19861
 587.6	19938
 588.1	19883
 588.6	19957
 589.2	19889
 589.7	19904
 590.2	19891
 590.8	19892
 591.3	19919
 591.9	19859
 592.4	19923
 592.9	19865
 593.5	19863
 594.0	19859
 594.5	19878
 595.1	19871
 595.6	19857
 596.1	19925
 596.7	19891
 597.2	19936
 597.7	19876
 598.3	19893
 598.8	19873
 599.3	19892
 599.9	19876
 600.4	19875
 601.0	19883
 601.5	19879
 602.0	19871
 602.6	19819
 603.1	19838
 603.6	19831
 604.2	19941
 604.7	19835
 605.2	19908
 605.8	19815
 606.3	19835
 606.8	19906
 607.4	19867
 607.9	19900
 608.4	19837
 609.0	19864
 609.5	19905
 610.0	19868
 610.6	19961
 611.1	19858
 611.6	19871
 612.2	19862
 612.7	19918
 613.2	19899
 613.8	19811
 614.3	19829
 614.8	19873
 615.4	19787
 615.9	19859
 616.4	19900
 617.0	19833
 617.5	19917
 618.0	19915
 618.6	19814
 619.1	19829
 619.6	19893
 620.2	19867
 620.7	19903
 621.2	19848
 621.8	19872
 622.3	19885
 622.8	19825
 623.4	19846
 623.9	19895
 624.4	19859
 625.0	19850
 625.5	19851
 626.0	19860
 626.6	19901
 627.1	19891
 627.6	19843
 628.2	19811
 628.7	19842
 629.2	19825
 629.8	19859
 630.3	19886
 630.8	19869
 631.4	19865
 631.9	19899
 632.4	19801
 632.9	19841
 633.5	19843
 634.0	19813
 634.5	19922
 635.1	19851
 635.6	19832
 636.1	19825
 636.7	19903
 637.2	19905
 637.7	19812
 638.3	19934
 638.8	19933
 639.3	19951
 639.8	19915
 640.4	19935
 640.9	19966
 641.4	19868
 642.0	19874
 642.5	19905
 643.0	19871
 643.6	19969
 644.1	19919
 644.6	19929
 645.1	19975
 645.7	19948
 646.2	19913
 646.7	19929
 647.3	19956
 647.8	19948
 648.3	19929
 648.9	19953
 649.4	19858
 649.9	19928
 650.4	19928
 651.0	19963
 651.5	19972
 652.0	20021
 652.6	19945
 653.1	20021
 653.6	19915
 654.1	20000
 654.7	19931
 655.2	20003
 655.7	20036
 656.3	20043
 656.8	19975
 657.3	20014
 657.8	19958
 658.4	19939
 658.9	19941
 659.4	20027
 659.9	20002
 660.5	19976
 661.0	20019
 661.5	20059
 662.1	20010
 662.6	20016
 663.1	19973
 663.6	20055
 664.2	20008
 664.7	19976
 665.2	19897
 665.7	20023
 666.3	19993
 666.8	20005
 667.3	20006
 667.8	19969
 668.4	20001
 668.9	20010
 669.4	19999
 669.9	20037
 670.5	19970
 671.0	19997
 671.5	19951
 672.0	20019
 672.6	20032
 673.1	20057
 673.6	19972
 674.1	20012
 674.7	20010
 675.2	20070
 675.7	19924
 676.2	19946
 676.8	19996
 677.3	20025
 677.8	19951
 678.3	20073
 678.9	20014
 679.4	19961
 679.9	20027
 680.4	20043
 681.0	20010
 681.5	20053
 682.0	20031
 682.5	20055
 683.1	19974
 683.6	20036
 684.1	19978
 684.6	20084
 685.1	20019
 685.7	20054
 686.2	20020
 686.7	19984
 687.2	19973
 687.8	20052
 688.3	19988
 688.8	20023
 689.3	19962
 689.8	19995
 690.4	19993
 690.9	19997
 691.4	19993
 691.9	20029
 692.4	19975
 693.0	20052
 693.5	20022
 694.0	20005
 694.5	20003
 695.1	19971
 695.6	19939
 696.1	20011
 696.6	19998
 697.1	20012
 697.7	20042
 698.2	19977
 698.7	19996
 699.2	19959
 699.7	19965
 700.3	19947
 700.8	19933
 701.3	20052
 701.8	20010
 702.3	19957
 702.8	19971
 703.4	19935
 703.9	19963
 704.4	19962
 704.9	19933
 705.4	19945
 706.0	20057
 706.5	20046
 707.0	19964
 707.5	19951
 708.0	19998
 708.5	19951
 709.1	20030
 709.6	19996
 710.1	19974
 710.6	19948
 711.1	19966
 711.7	19995
 712.2	20010
 712.7	20019
 713.2	20001
 713.7	20009
 714.2	19971
 714.8	20058
 715.3	20011
 715.8	20015
 716.3	20031
 716.8	19939
 717.3	19925
 717.8	20046
 718.4	20054
 718.9	19985
 719.4	20073
 719.9	19979
 720.4	20025
 720.9	20033
 721.4	20031
 722.0	20048
 722.5	20029
 723.0	20011
 723.5	20024
 724.0	19985
 724.5	19981
 725.0	19990
 725.6	19919
 726.1	19967
 726.6	20088
 727.1	20027
 727.6	20063
 728.1	20079
 728.6	20034
 729.1	20017
 729.7	20007
 730.2	20035
 730.7	20069
 731.2	20095
 731.7	20087
 732.2	20087
 732.7	20069
 733.2	20115
 733.8	20093
 734.3	20107
 734.8	20070
 735.3	20089
 735.8	20071
 736.3	20034
 736.8	20068
 737.3	20099
 737.8	20050
 738.4	20038
 738.9	19984
 739.4	20075
 739.9	20058
 740.4	20057
 740.9	20049
 741.4	20045
 741.9	20039
 742.4	20057
 742.9	20042
 743.4	20137
 744.0	20053
 744.5	20054
 745.0	20071
 745.5	20159
 746.0	20137
 746.5	20140
 747.0	20087
 747.5	20079
 748.0	20051
 748.5	20070
 749.0	20099
 749.5	20189
 750.0	20027
 750.5	20102
 751.1	20120
 751.6	20127
 752.1	20127
 752.6	20093
 753.1	20132
 753.6	20074
 754.1	20043
 754.6	20105
 755.1	20068
 755.6	20087
 756.1	20013
 756.6	20131
 757.1	20100
 757.6	20094
 758.1	20064
 758.6	20098
 759.1	20025
 759.6	20081
 760.1	20031
 760.7	20014
 761.2	20103
 761.7	20048
 762.2	20048
 762.7	20113
 763.2	19963
 763.7	20072
 764.2	20012
 764.7	20027
 765.2	20075
 765.7	20062
 766.2	20025
 766.7	20085
 767.2	20045
 767.7	20069
 768.2	20060
 768.7	20034
 769.2	20041
 769.7	20101
 770.2	20073
 770.7	20084
 771.2	20072
 771.7	20047
 772.2	20073
 772.7	20126
 773.2	20113
 773.7	20067
 774.2	20021
 774.7	20084
 775.2	20080
 775.7	20061
 776.2	20065
 776.7	20091
 777.2	20014
 777.7	20103
 778.2	20092
 778.7	20136
 779.2	20156
 779.7	20187
 780.2	20023
 780.7	20103
 781.2	20115
 781.7	20188
 782.2	20106
 782.6	20194
 783.1	20203
 783.6	20169
 784.1	20144
 784.6	20126
 785.1	20143
 785.6	20129
 786.1	20173
 786.6	20195
 787.1	20135
 787.6	20145
 788.1	20147
 788.6	20131
 789.1	20136
 789.6	20179
 790.1	20201
 790.6	20209
 791.1	20110
 791.6	20129
 792.0	20154
 792.5	20199
 793.0	20190
 793.5	20193
 794.0	20133
 794.5	20233
 795.0	20231
 795.5	20199
 796.0	20228
 796.5	20183
 797.0	20219
 797.5	20269
 798.0	20130
 798.4	20183
 798.9	20177
 799.4	20213
 799.9	20229
 800.4	20097
 800.9	20205
 801.4	20294
 801.9	20270
 802.4	20199
 802.9	20287
 803.3	20291
 803.8	20273
 804.3	20226
 804.8	20305
 805.3	20267
 805.8	20272
 806.3	20279
 806.8	20277
 807.2	20283
 807.7	20264
 808.2	20305
 808.7	20233
 809.2	20255
 809.7	20202
 810.2	20274
 810.7	20225
 811.1	20255
 811.6	20270
 812.1	20231
 812.6	20199
 813.1	20260
 813.6	20286
 814.1	20269
 814.5	20239
 815.0	20271
 815.5	20246
 816.0	20205
 816.5	20287
 817.0	20243
 817.4	20231
 817.9	20282
 818.4	20215
 818.9	20311
 819.4	20269
 819.9	20255
 820.3	20230
 820.8	20239
 821.3	20256
 821.8	20281
 822.3	20217
 822.7	20209
 823.2	20279
 823.7	20237
 824.2	20244
 824.7	20229
 825.2	20254
 825.6	20236
 826.1	20229
 826.6	20291
 827.1	20280
 827.6	20278
 828.0	20219
 828.5	20201
 829.0	20250
 829.5	20195
 829.9	20203
 830.4	20269
 830.9	20258
 831.4	20285
 831.9	20243
 832.3	20331
 832.8	20277
 833.3	20273
 833.8	20363
 834.2	20359
 834.7	20196
 835.2	20303
 835.7	20306
 836.1	20305
 836.6	20294
 837.1	20297
 837.6	20309
 838.0	20350
 838.5	20379
 839.0	20380
 839.5	20373
 839.9	20293
 840.4	20306
 840.9	20270
 841.4	20323
 841.8	20350
 842.3	20360
 842.8	20385
 843.3	20390
 843.7	20285
 844.2	20278
 844.7	20375
 845.1	20346
 845.6	20271
 846.1	20297
 846.6	20327
 847.0	20229
 847.5	20288
 848.0	20275
 848.4	20319
 848.9	20286
 849.4	20279
 849.8	20307
 850.3	20303
 850.8	20359
 851.3	20325
 851.7	20324
 852.2	20333
 852.7	20325
 853.1	20311
 853.6	20265
 854.1	20312
 854.5	20276
 855.0	20270
 855.5	20272
 855.9	20347
 856.4	20335
 856.9	20245
 857.3	20315
 857.8	20294
 858.3	20346
 858.7	20305
 859.2	20329
 859.7	20319
 860.1	20373
 860.6	20356
 861.1	20301
 861.5	20355
 862.0	20378
 862.4	20350
 862.9	20314
 863.4	20355
 863.8	20365
 864.3	20372
 864.8	20287
 865.2	20347
 865.7	20375
 866.1	20395
 866.6	20310
 867.1	20399
 867.5	20386
 868.0	20360
 868.5	20323
 868.9	20323
 869.4	20433
 869.8	20387
 870.3	20339
 870.8	20413
 871.2	20363
 871.7	20357
 872.1	20305
 872.6	20365
 873.0	20345
 873.5	20436
 874.0	20433
 874.4	20324
 874.9	20374
 875.3	20339
 875.8	20245
 876.2	20042
 876.7	19909
 877.2	19589
 877.6	19199
 878.1	18838
