#xlabel Wavelength (nm)
#ylabel Spectrometer Array Counts
#title Exposure time is 11000 ms
## lambda	counts
 349.8	18762
 350.3	19086
 350.8	19339
 351.3	19505
 351.9	19557
 352.4	19634
 352.9	19663
 353.4	19596
 354.0	19579
 354.5	19610
 355.0	19608
 355.5	19626
 356.0	19578
 356.6	19546
 357.1	19596
 357.6	19573
 358.1	19596
 358.7	19535
 359.2	19550
 359.7	19570
 360.2	19609
 360.8	19572
 361.3	19670
 361.8	19611
 362.3	19637
 362.9	19591
 363.4	19665
 363.9	19665
 364.4	19692
 364.9	19588
 365.5	19665
 366.0	19647
 366.5	19593
 367.0	19641
 367.6	19666
 368.1	19659
 368.6	19586
 369.1	19647
 369.7	19695
 370.2	19606
 370.7	19607
 371.2	19644
 371.8	19698
 372.3	19611
 372.8	19693
 373.3	19701
 373.9	19639
 374.4	19646
 374.9	19691
 375.5	19576
 376.0	19702
 376.5	19659
 377.0	19682
 377.6	19621
 378.1	19692
 378.6	19617
 379.1	19615
 379.7	19589
 380.2	19662
 380.7	19655
 381.2	19607
 381.8	19592
 382.3	19631
 382.8	19601
 383.4	19653
 383.9	19593
 384.4	19749
 384.9	19646
 385.5	19661
 386.0	19660
 386.5	19732
 387.1	19654
 387.6	19673
 388.1	19670
 388.6	19682
 389.2	19662
 389.7	19681
 390.2	19652
 390.8	19737
 391.3	19695
 391.8	19685
 392.3	19658
 392.9	19647
 393.4	19632
 393.9	19690
 394.5	19687
 395.0	19626
 395.5	19642
 396.0	19642
 396.6	19596
 397.1	19685
 397.6	19681
 398.2	19677
 398.7	19679
 399.2	19772
 399.8	19630
 400.3	19703
 400.8	19746
 401.3	19707
 401.9	19728
 402.4	19743
 402.9	19721
 403.5	19750
 404.0	19727
 404.5	19667
 405.1	19665
 405.6	19752
 406.1	19723
 406.7	19720
 407.2	19719
 407.7	19789
 408.2	19779
 408.8	19769
 409.3	19794
 409.8	19835
 410.4	19785
 410.9	19778
 411.4	19716
 412.0	19782
 412.5	19823
 413.0	19764
 413.6	19799
 414.1	19754
 414.6	19773
 415.2	19816
 415.7	19743
 416.2	19791
 416.8	19769
 417.3	19741
 417.8	19756
 418.4	19841
 418.9	19771
 419.4	19902
 420.0	19771
 420.5	19828
 421.0	19764
 421.5	19851
 422.1	19821
 422.6	19868
 423.1	19893
 423.7	19849
 424.2	19830
 424.7	19862
 425.3	19832
 425.8	19851
 426.3	19823
 426.9	19881
 427.4	19817
 427.9	19922
 428.5	19850
 429.0	19883
 429.6	19829
 430.1	19906
 430.6	19892
 431.2	19813
 431.7	19904
 432.2	19856
 432.8	19819
 433.3	19920
 433.8	19911
 434.4	19869
 434.9	19875
 435.4	19907
 436.0	19881
 436.5	19863
 437.0	19924
 437.6	19898
 438.1	19949
 438.6	19943
 439.2	19966
 439.7	19946
 440.2	19890
 440.8	19924
 441.3	19920
 441.8	19924
 442.4	19884
 442.9	19912
 443.5	19953
 444.0	19944
 444.5	19969
 445.1	19873
 445.6	19906
 446.1	19922
 446.7	19932
 447.2	19947
 447.7	19919
 448.3	19986
 448.8	19931
 449.3	19958
 449.9	19889
 450.4	19979
 450.9	20005
 451.5	19989
 452.0	19942
 452.6	19943
 453.1	19985
 453.6	19987
 454.2	19860
 454.7	19922
 455.2	19934
 455.8	19971
 456.3	19899
 456.8	20031
 457.4	19935
 457.9	19943
 458.5	19985
 459.0	19943
 459.5	19976
 460.1	19927
 460.6	19982
 461.1	19960
 461.7	20010
 462.2	19956
 462.7	20000
 463.3	19918
 463.8	19993
 464.4	20063
 464.9	19996
 465.4	20060
 466.0	19947
 466.5	20023
 467.0	19947
 467.6	20013
 468.1	20091
 468.7	20011
 469.2	19929
 469.7	20017
 470.3	19983
 470.8	20012
 471.3	19979
 471.9	19927
 472.4	19976
 473.0	20013
 473.5	20019
 474.0	20007
 474.6	20001
 475.1	19984
 475.6	20049
 476.2	20058
 476.7	20025
 477.3	20081
 477.8	20011
 478.3	19927
 478.9	20132
 479.4	20006
 479.9	20012
 480.5	19987
 481.0	20007
 481.6	20023
 482.1	20076
 482.6	20053
 483.2	20048
 483.7	20158
 484.2	20083
 484.8	19901
 485.3	19997
 485.9	20069
 486.4	20021
 486.9	20039
 487.5	19987
 488.0	19985
 488.6	20043
 489.1	20042
 489.6	20095
 490.2	20087
 490.7	20035
 491.2	19999
 491.8	20055
 492.3	19996
 492.9	20050
 493.4	20057
 493.9	20076
 494.5	20074
 495.0	20153
 495.6	20060
 496.1	20076
 496.6	20138
 497.2	20047
 497.7	20014
 498.2	20106
 498.8	20129
 499.3	20041
 499.9	20093
 500.4	20091
 500.9	20067
 501.5	20049
 502.0	20119
 502.6	20087
 503.1	20166
 503.6	20123
 504.2	20062
 504.7	20058
 505.2	20122
 505.8	20092
 506.3	20163
 506.9	20156
 507.4	20101
 507.9	20068
 508.5	20083
 509.0	20112
 509.6	20166
 510.1	20123
 510.6	20150
 511.2	20160
 511.7	20123
 512.2	20185
 512.8	20195
 513.3	20144
 513.9	20127
 514.4	20183
 514.9	20255
 515.5	20146
 516.0	20224
 516.6	20191
 517.1	20244
 517.6	20230
 518.2	20207
 518.7	20140
 519.3	20205
 519.8	20257
 520.3	20257
 520.9	20218
 521.4	20229
 521.9	20289
 522.5	20214
 523.0	20246
 523.6	20286
 524.1	20127
 524.6	20183
 525.2	20217
 525.7	20243
 526.3	20157
 526.8	20253
 527.3	20194
 527.9	20206
 528.4	20189
 528.9	20242
 529.5	20250
 530.0	20223
 530.6	20266
 531.1	20265
 531.6	20159
 532.2	20280
 532.7	20216
 533.3	20244
 533.8	20360
 534.3	20377
 534.9	20366
 535.4	20295
 536.0	20361
 536.5	20383
 537.0	20339
 537.6	20346
 538.1	20391
 538.6	20402
 539.2	20325
 539.7	20335
 540.3	20429
 540.8	20388
 541.3	20332
 541.9	20367
 542.4	20359
 543.0	20425
 543.5	20384
 544.0	20361
 544.6	20413
 545.1	20418
 545.6	20457
 546.2	20437
 546.7	20344
 547.3	20410
 547.8	20388
 548.3	20440
 548.9	20354
 549.4	20359
 550.0	20327
 550.5	20395
 551.0	20453
 551.6	20393
 552.1	20411
 552.6	20415
 553.2	20385
 553.7	20364
 554.3	20403
 554.8	20471
 555.3	20323
 555.9	20395
 556.4	20353
 556.9	20443
 557.5	20470
 558.0	20417
 558.6	20386
 559.1	20465
 559.6	20434
 560.2	20431
 560.7	20419
 561.3	20385
 561.8	20357
 562.3	20477
 562.9	20452
 563.4	20485
 563.9	20466
 564.5	20471
 565.0	20450
 565.6	20473
 566.1	20468
 566.6	20470
 567.2	20453
 567.7	20561
 568.2	20459
 568.8	20473
 569.3	20439
 569.9	20513
 570.4	20499
 570.9	20469
 571.5	20457
 572.0	20445
 572.5	20504
 573.1	20442
 573.6	20496
 574.1	20485
 574.7	20476
 575.2	20436
 575.8	20479
 576.3	20551
 576.8	20503
 577.4	20510
 577.9	20520
 578.4	20470
 579.0	20467
 579.5	20570
 580.1	20488
 580.6	20481
 581.1	20559
 581.7	20569
 582.2	20497
 582.7	20538
 583.3	20577
 583.8	20543
 584.3	20483
 584.9	20539
 585.4	20531
 586.0	20501
 586.5	20535
 587.0	20483
 587.6	20564
 588.1	20506
 588.6	20584
 589.2	20514
 589.7	20531
 590.2	20524
 590.8	20525
 591.3	20547
 591.9	20489
 592.4	20558
 592.9	20495
 593.5	20487
 594.0	20483
 594.5	20509
 595.1	20495
 595.6	20475
 596.1	20543
 596.7	20509
 597.2	20558
 597.7	20498
 598.3	20515
 598.8	20485
 599.3	20505
 599.9	20488
 600.4	20489
 601.0	20493
 601.5	20483
 602.0	20479
 602.6	20423
 603.1	20443
 603.6	20441
 604.2	20553
 604.7	20449
 605.2	20524
 605.8	20429
 606.3	20449
 606.8	20524
 607.4	20484
 607.9	20521
 608.4	20459
 609.0	20491
 609.5	20531
 610.0	20495
 610.6	20597
 611.1	20495
 611.6	20519
 612.2	20504
 612.7	20568
 613.2	20549
 613.8	20465
 614.3	20487
 614.8	20536
 615.4	20447
 615.9	20527
 616.4	20577
 617.0	20516
 617.5	20604
 618.0	20603
 618.6	20507
 619.1	20534
 619.6	20599
 620.2	20577
 620.7	20621
 621.2	20573
 621.8	20601
 622.3	20621
 622.8	20560
 623.4	20587
 623.9	20641
 624.4	20606
 625.0	20602
 625.5	20600
 626.0	20612
 626.6	20661
 627.1	20654
 627.6	20602
 628.2	20569
 628.7	20602
 629.2	20591
 629.8	20623
 630.3	20646
 630.8	20630
 631.4	20619
 631.9	20654
 632.4	20546
 632.9	20582
 633.5	20590
 634.0	20550
 634.5	20656
 635.1	20584
 635.6	20573
 636.1	20561
 636.7	20635
 637.2	20627
 637.7	20533
 638.3	20656
 638.8	20652
 639.3	20673
 639.8	20630
 640.4	20651
 640.9	20675
 641.4	20587
 642.0	20582
 642.5	20607
 643.0	20575
 643.6	20669
 644.1	20631
 644.6	20638
 645.1	20678
 645.7	20656
 646.2	20620
 646.7	20635
 647.3	20664
 647.8	20666
 648.3	20639
 648.9	20669
 649.4	20580
 649.9	20650
 650.4	20650
 651.0	20687
 651.5	20701
 652.0	20746
 652.6	20681
 653.1	20758
 653.6	20655
 654.1	20731
 654.7	20679
 655.2	20755
 655.7	20787
 656.3	20799
 656.8	20731
 657.3	20779
 657.8	20723
 658.4	20701
 658.9	20706
 659.4	20796
 659.9	20777
 660.5	20746
 661.0	20801
 661.5	20840
 662.1	20790
 662.6	20801
 663.1	20758
 663.6	20845
 664.2	20795
 664.7	20758
 665.2	20686
 665.7	20811
 666.3	20778
 666.8	20789
 667.3	20803
 667.8	20758
 668.4	20793
 668.9	20802
 669.4	20787
 669.9	20819
 670.5	20760
 671.0	20783
 671.5	20738
 672.0	20812
 672.6	20817
 673.1	20842
 673.6	20760
 674.1	20798
 674.7	20790
 675.2	20845
 675.7	20700
 676.2	20721
 676.8	20777
 677.3	20805
 677.8	20722
 678.3	20852
 678.9	20787
 679.4	20737
 679.9	20803
 680.4	20817
 681.0	20783
 681.5	20824
 682.0	20801
 682.5	20826
 683.1	20743
 683.6	20800
 684.1	20740
 684.6	20850
 685.1	20786
 685.7	20823
 686.2	20788
 686.7	20754
 687.2	20742
 687.8	20824
 688.3	20759
 688.8	20793
 689.3	20732
 689.8	20766
 690.4	20763
 690.9	20767
 691.4	20765
 691.9	20798
 692.4	20746
 693.0	20824
 693.5	20799
 694.0	20776
 694.5	20768
 695.1	20747
 695.6	20710
 696.1	20789
 696.6	20771
 697.1	20791
 697.7	20821
 698.2	20755
 698.7	20775
 699.2	20733
 699.7	20749
 700.3	20727
 700.8	20708
 701.3	20827
 701.8	20791
 702.3	20729
 702.8	20743
 703.4	20713
 703.9	20739
 704.4	20737
 704.9	20703
 705.4	20712
 706.0	20823
 706.5	20813
 707.0	20726
 707.5	20719
 708.0	20760
 708.5	20711
 709.1	20789
 709.6	20756
 710.1	20723
 710.6	20707
 711.1	20712
 711.7	20745
 712.2	20757
 712.7	20765
 713.2	20747
 713.7	20750
 714.2	20709
 714.8	20797
 715.3	20744
 715.8	20750
 716.3	20756
 716.8	20665
 717.3	20651
 717.8	20770
 718.4	20779
 718.9	20710
 719.4	20799
 719.9	20701
 720.4	20749
 720.9	20755
 721.4	20757
 722.0	20778
 722.5	20761
 723.0	20746
 723.5	20754
 724.0	20715
 724.5	20711
 725.0	20726
 725.6	20658
 726.1	20708
 726.6	20831
 727.1	20767
 727.6	20811
 728.1	20827
 728.6	20783
 729.1	20770
 729.7	20756
 730.2	20785
 730.7	20823
 731.2	20850
 731.7	20841
 732.2	20850
 732.7	20828
 733.2	20876
 733.8	20855
 734.3	20866
 734.8	20831
 735.3	20854
 735.8	20835
 736.3	20805
 736.8	20843
 737.3	20875
 737.8	20819
 738.4	20812
 738.9	20757
 739.4	20851
 739.9	20837
 740.4	20841
 740.9	20831
 741.4	20828
 741.9	20828
 742.4	20845
 742.9	20831
 743.4	20930
 744.0	20847
 744.5	20844
 745.0	20863
 745.5	20951
 746.0	20930
 746.5	20931
 747.0	20882
 747.5	20871
 748.0	20844
 748.5	20863
 749.0	20884
 749.5	20983
 750.0	20817
 750.5	20891
 751.1	20902
 751.6	20906
 752.1	20908
 752.6	20876
 753.1	20909
 753.6	20851
 754.1	20818
 754.6	20877
 755.1	20838
 755.6	20859
 756.1	20778
 756.6	20897
 757.1	20863
 757.6	20856
 758.1	20827
 758.6	20853
 759.1	20790
 759.6	20836
 760.1	20785
 760.7	20757
 761.2	20847
 761.7	20790
 762.2	20785
 762.7	20848
 763.2	20698
 763.7	20808
 764.2	20745
 764.7	20752
 765.2	20801
 765.7	20773
 766.2	20743
 766.7	20801
 767.2	20762
 767.7	20777
 768.2	20768
 768.7	20735
 769.2	20742
 769.7	20799
 770.2	20769
 770.7	20775
 771.2	20762
 771.7	20741
 772.2	20764
 772.7	20809
 773.2	20802
 773.7	20755
 774.2	20705
 774.7	20755
 775.2	20755
 775.7	20733
 776.2	20737
 776.7	20760
 777.2	20684
 777.7	20776
 778.2	20767
 778.7	20803
 779.2	20819
 779.7	20853
 780.2	20690
 780.7	20767
 781.2	20778
 781.7	20849
 782.2	20777
 782.6	20856
 783.1	20863
 783.6	20827
 784.1	20794
 784.6	20788
 785.1	20799
 785.6	20793
 786.1	20831
 786.6	20856
 787.1	20796
 787.6	20803
 788.1	20798
 788.6	20788
 789.1	20789
 789.6	20834
 790.1	20854
 790.6	20859
 791.1	20757
 791.6	20773
 792.0	20798
 792.5	20841
 793.0	20829
 793.5	20834
 794.0	20772
 794.5	20871
 795.0	20860
 795.5	20835
 796.0	20853
 796.5	20803
 797.0	20835
 797.5	20890
 798.0	20745
 798.4	20793
 798.9	20788
 799.4	20814
 799.9	20835
 800.4	20697
 800.9	20805
 801.4	20886
 801.9	20855
 802.4	20785
 802.9	20867
 803.3	20871
 803.8	20847
 804.3	20795
 804.8	20867
 805.3	20827
 805.8	20829
 806.3	20834
 806.8	20822
 807.2	20831
 807.7	20804
 808.2	20843
 808.7	20765
 809.2	20783
 809.7	20725
 810.2	20801
 810.7	20741
 811.1	20773
 811.6	20780
 812.1	20740
 812.6	20706
 813.1	20762
 813.6	20791
 814.1	20767
 814.5	20727
 815.0	20762
 815.5	20730
 816.0	20690
 816.5	20767
 817.0	20718
 817.4	20709
 817.9	20755
 818.4	20686
 818.9	20779
 819.4	20737
 819.9	20717
 820.3	20687
 820.8	20699
 821.3	20711
 821.8	20735
 822.3	20674
 822.7	20659
 823.2	20722
 823.7	20677
 824.2	20687
 824.7	20670
 825.2	20701
 825.6	20677
 826.1	20670
 826.6	20728
 827.1	20717
 827.6	20710
 828.0	20651
 828.5	20627
 829.0	20668
 829.5	20615
 829.9	20627
 830.4	20693
 830.9	20682
 831.4	20707
 831.9	20665
 832.3	20757
 832.8	20693
 833.3	20695
 833.8	20779
 834.2	20774
 834.7	20613
 835.2	20718
 835.7	20717
 836.1	20714
 836.6	20700
 837.1	20703
 837.6	20715
 838.0	20757
 838.5	20790
 839.0	20789
 839.5	20779
 839.9	20697
 840.4	20710
 840.9	20670
 841.4	20718
 841.8	20747
 842.3	20755
 842.8	20787
 843.3	20787
 843.7	20682
 844.2	20671
 844.7	20766
 845.1	20743
 845.6	20661
 846.1	20687
 846.6	20721
 847.0	20617
 847.5	20673
 848.0	20660
 848.4	20706
 848.9	20670
 849.4	20661
 849.8	20686
 850.3	20683
 850.8	20734
 851.3	20698
 851.7	20698
 852.2	20707
 852.7	20697
 853.1	20679
 853.6	20632
 854.1	20675
 854.5	20639
 855.0	20636
 855.5	20629
 855.9	20700
 856.4	20688
 856.9	20598
 857.3	20666
 857.8	20643
 858.3	20692
 858.7	20647
 859.2	20664
 859.7	20655
 860.1	20713
 860.6	20691
 861.1	20635
 861.5	20685
 862.0	20694
 862.4	20675
 862.9	20636
 863.4	20680
 863.8	20682
 864.3	20682
 864.8	20597
 865.2	20654
 865.7	20682
 866.1	20694
 866.6	20614
 867.1	20694
 867.5	20680
 868.0	20664
 868.5	20615
 868.9	20617
 869.4	20727
 869.8	20677
 870.3	20637
 870.8	20707
 871.2	20655
 871.7	20647
 872.1	20592
 872.6	20647
 873.0	20620
 873.5	20712
 874.0	20719
 874.4	20631
 874.9	20707
 875.3	20722
 875.8	20700
 876.2	20578
 876.7	20507
 877.2	20206
 877.6	19752
 878.1	19229
