#xlabel Wavelength (nm)
#ylabel Spectrometer Array Counts
#title Exposure time is 11000 ms
## lambda	counts
 349.8	18540
 350.3	18811
 350.8	19072
 351.3	19277
 351.9	19388
 352.4	19515
 352.9	19585
 353.4	19549
 354.0	19550
 354.5	19591
 355.0	19591
 355.5	19599
 356.0	19555
 356.6	19522
 357.1	19569
 357.6	19543
 358.1	19571
 358.7	19506
 359.2	19517
 359.7	19533
 360.2	19574
 360.8	19540
 361.3	19635
 361.8	19578
 362.3	19604
 362.9	19557
 363.4	19634
 363.9	19629
 364.4	19657
 364.9	19560
 365.5	19629
 366.0	19614
 366.5	19557
 367.0	19599
 367.6	19633
 368.1	19627
 368.6	19549
 369.1	19611
 369.7	19661
 370.2	19574
 370.7	19572
 371.2	19611
 371.8	19666
 372.3	19577
 372.8	19653
 373.3	19667
 373.9	19600
 374.4	19619
 374.9	19659
 375.5	19537
 376.0	19671
 376.5	19623
 377.0	19644
 377.6	19582
 378.1	19662
 378.6	19583
 379.1	19584
 379.7	19559
 380.2	19634
 380.7	19623
 381.2	19575
 381.8	19559
 382.3	19597
 382.8	19577
 383.4	19611
 383.9	19561
 384.4	19721
 384.9	19614
 385.5	19627
 386.0	19628
 386.5	19701
 387.1	19619
 387.6	19644
 388.1	19637
 388.6	19645
 389.2	19631
 389.7	19648
 390.2	19618
 390.8	19701
 391.3	19659
 391.8	19649
 392.3	19627
 392.9	19617
 393.4	19599
 393.9	19664
 394.5	19658
 395.0	19593
 395.5	19609
 396.0	19605
 396.6	19565
 397.1	19654
 397.6	19649
 398.2	19645
 398.7	19639
 399.2	19737
 399.8	19596
 400.3	19666
 400.8	19709
 401.3	19677
 401.9	19695
 402.4	19705
 402.9	19691
 403.5	19711
 404.0	19692
 404.5	19633
 405.1	19633
 405.6	19722
 406.1	19695
 406.7	19686
 407.2	19681
 407.7	19761
 408.2	19743
 408.8	19734
 409.3	19761
 409.8	19802
 410.4	19751
 410.9	19747
 411.4	19684
 412.0	19741
 412.5	19789
 413.0	19725
 413.6	19767
 414.1	19723
 414.6	19741
 415.2	19782
 415.7	19708
 416.2	19754
 416.8	19734
 417.3	19706
 417.8	19725
 418.4	19807
 418.9	19733
 419.4	19868
 420.0	19737
 420.5	19800
 421.0	19730
 421.5	19814
 422.1	19786
 422.6	19833
 423.1	19858
 423.7	19811
 424.2	19793
 424.7	19820
 425.3	19802
 425.8	19814
 426.3	19791
 426.9	19844
 427.4	19782
 427.9	19892
 428.5	19820
 429.0	19847
 429.6	19795
 430.1	19870
 430.6	19855
 431.2	19777
 431.7	19873
 432.2	19822
 432.8	19787
 433.3	19885
 433.8	19877
 434.4	19836
 434.9	19836
 435.4	19877
 436.0	19845
 436.5	19825
 437.0	19901
 437.6	19863
 438.1	19911
 438.6	19908
 439.2	19933
 439.7	19915
 440.2	19854
 440.8	19888
 441.3	19883
 441.8	19889
 442.4	19848
 442.9	19881
 443.5	19916
 444.0	19909
 444.5	19935
 445.1	19840
 445.6	19871
 446.1	19887
 446.7	19896
 447.2	19913
 447.7	19885
 448.3	19950
 448.8	19900
 449.3	19925
 449.9	19857
 450.4	19941
 450.9	19969
 451.5	19954
 452.0	19910
 452.6	19909
 453.1	19950
 453.6	19955
 454.2	19823
 454.7	19887
 455.2	19903
 455.8	19937
 456.3	19866
 456.8	19994
 457.4	19902
 457.9	19911
 458.5	19955
 459.0	19911
 459.5	19949
 460.1	19897
 460.6	19947
 461.1	19926
 461.7	19979
 462.2	19925
 462.7	19962
 463.3	19887
 463.8	19959
 464.4	20023
 464.9	19963
 465.4	20027
 466.0	19913
 466.5	19986
 467.0	19906
 467.6	19978
 468.1	20058
 468.7	19975
 469.2	19891
 469.7	19985
 470.3	19948
 470.8	19985
 471.3	19945
 471.9	19890
 472.4	19940
 473.0	19980
 473.5	19982
 474.0	19973
 474.6	19971
 475.1	19953
 475.6	20017
 476.2	20018
 476.7	19991
 477.3	20044
 477.8	19977
 478.3	19897
 478.9	20100
 479.4	19971
 479.9	19983
 480.5	19955
 481.0	19976
 481.6	19993
 482.1	20043
 482.6	20013
 483.2	20018
 483.7	20127
 484.2	20047
 484.8	19869
 485.3	19969
 485.9	20039
 486.4	19994
 486.9	20007
 487.5	19957
 488.0	19953
 488.6	20006
 489.1	20011
 489.6	20060
 490.2	20051
 490.7	20005
 491.2	19967
 491.8	20023
 492.3	19968
 492.9	20015
 493.4	20027
 493.9	20042
 494.5	20043
 495.0	20113
 495.6	20027
 496.1	20041
 496.6	20100
 497.2	20012
 497.7	19978
 498.2	20073
 498.8	20103
 499.3	20010
 499.9	20065
 500.4	20053
 500.9	20041
 501.5	20024
 502.0	20082
 502.6	20057
 503.1	20141
 503.6	20089
 504.2	20037
 504.7	20027
 505.2	20081
 505.8	20061
 506.3	20129
 506.9	20124
 507.4	20070
 507.9	20037
 508.5	20048
 509.0	20079
 509.6	20135
 510.1	20090
 510.6	20115
 511.2	20129
 511.7	20094
 512.2	20155
 512.8	20163
 513.3	20115
 513.9	20098
 514.4	20153
 514.9	20226
 515.5	20117
 516.0	20190
 516.6	20161
 517.1	20213
 517.6	20194
 518.2	20177
 518.7	20110
 519.3	20173
 519.8	20225
 520.3	20228
 520.9	20179
 521.4	20191
 521.9	20259
 522.5	20180
 523.0	20213
 523.6	20250
 524.1	20097
 524.6	20155
 525.2	20183
 525.7	20213
 526.3	20125
 526.8	20224
 527.3	20163
 527.9	20174
 528.4	20158
 528.9	20207
 529.5	20218
 530.0	20195
 530.6	20232
 531.1	20235
 531.6	20129
 532.2	20246
 532.7	20190
 533.3	20207
 533.8	20327
 534.3	20341
 534.9	20333
 535.4	20260
 536.0	20326
 536.5	20358
 537.0	20305
 537.6	20317
 538.1	20357
 538.6	20368
 539.2	20295
 539.7	20303
 540.3	20401
 540.8	20352
 541.3	20307
 541.9	20331
 542.4	20332
 543.0	20395
 543.5	20353
 544.0	20326
 544.6	20384
 545.1	20388
 545.6	20426
 546.2	20407
 546.7	20311
 547.3	20379
 547.8	20359
 548.3	20406
 548.9	20320
 549.4	20329
 550.0	20296
 550.5	20367
 551.0	20421
 551.6	20359
 552.1	20382
 552.6	20381
 553.2	20355
 553.7	20329
 554.3	20367
 554.8	20439
 555.3	20285
 555.9	20363
 556.4	20316
 556.9	20413
 557.5	20435
 558.0	20380
 558.6	20356
 559.1	20431
 559.6	20401
 560.2	20392
 560.7	20388
 561.3	20358
 561.8	20328
 562.3	20443
 562.9	20423
 563.4	20444
 563.9	20434
 564.5	20439
 565.0	20418
 565.6	20439
 566.1	20435
 566.6	20435
 567.2	20418
 567.7	20529
 568.2	20423
 568.8	20437
 569.3	20408
 569.9	20479
 570.4	20467
 570.9	20435
 571.5	20428
 572.0	20412
 572.5	20472
 573.1	20411
 573.6	20462
 574.1	20453
 574.7	20440
 575.2	20409
 575.8	20445
 576.3	20519
 576.8	20471
 577.4	20482
 577.9	20490
 578.4	20436
 579.0	20437
 579.5	20546
 580.1	20452
 580.6	20457
 581.1	20525
 581.7	20535
 582.2	20461
 582.7	20505
 583.3	20543
 583.8	20513
 584.3	20451
 584.9	20506
 585.4	20503
 586.0	20467
 586.5	20503
 587.0	20451
 587.6	20531
 588.1	20472
 588.6	20554
 589.2	20483
 589.7	20507
 590.2	20490
 590.8	20485
 591.3	20521
 591.9	20458
 592.4	20523
 592.9	20462
 593.5	20451
 594.0	20453
 594.5	20472
 595.1	20467
 595.6	20447
 596.1	20513
 596.7	20481
 597.2	20525
 597.7	20466
 598.3	20481
 598.8	20457
 599.3	20477
 599.9	20454
 600.4	20455
 601.0	20458
 601.5	20456
 602.0	20446
 602.6	20399
 603.1	20413
 603.6	20413
 604.2	20525
 604.7	20421
 605.2	20493
 605.8	20395
 606.3	20419
 606.8	20490
 607.4	20458
 607.9	20493
 608.4	20427
 609.0	20455
 609.5	20506
 610.0	20469
 610.6	20568
 611.1	20467
 611.6	20487
 612.2	20478
 612.7	20529
 613.2	20516
 613.8	20428
 614.3	20459
 614.8	20508
 615.4	20420
 615.9	20497
 616.4	20545
 617.0	20486
 617.5	20575
 618.0	20573
 618.6	20483
 619.1	20499
 619.6	20571
 620.2	20546
 620.7	20591
 621.2	20543
 621.8	20573
 622.3	20588
 622.8	20539
 623.4	20553
 623.9	20612
 624.4	20577
 625.0	20579
 625.5	20577
 626.0	20587
 626.6	20633
 627.1	20622
 627.6	20575
 628.2	20541
 628.7	20572
 629.2	20558
 629.8	20594
 630.3	20613
 630.8	20599
 631.4	20591
 631.9	20620
 632.4	20517
 632.9	20555
 633.5	20559
 634.0	20520
 634.5	20621
 635.1	20557
 635.6	20544
 636.1	20527
 636.7	20597
 637.2	20597
 637.7	20508
 638.3	20622
 638.8	20616
 639.3	20641
 639.8	20597
 640.4	20620
 640.9	20641
 641.4	20553
 642.0	20555
 642.5	20576
 643.0	20545
 643.6	20639
 644.1	20598
 644.6	20609
 645.1	20647
 645.7	20621
 646.2	20586
 646.7	20603
 647.3	20632
 647.8	20633
 648.3	20611
 648.9	20641
 649.4	20550
 649.9	20620
 650.4	20623
 651.0	20655
 651.5	20665
 652.0	20717
 652.6	20653
 653.1	20722
 653.6	20625
 654.1	20706
 654.7	20644
 655.2	20723
 655.7	20757
 656.3	20767
 656.8	20698
 657.3	20744
 657.8	20689
 658.4	20673
 658.9	20679
 659.4	20766
 659.9	20747
 660.5	20717
 661.0	20762
 661.5	20804
 662.1	20760
 662.6	20763
 663.1	20723
 663.6	20807
 664.2	20763
 664.7	20731
 665.2	20654
 665.7	20783
 666.3	20750
 666.8	20758
 667.3	20768
 667.8	20728
 668.4	20763
 668.9	20767
 669.4	20752
 669.9	20791
 670.5	20729
 671.0	20753
 671.5	20708
 672.0	20779
 672.6	20786
 673.1	20814
 673.6	20729
 674.1	20769
 674.7	20762
 675.2	20819
 675.7	20671
 676.2	20695
 676.8	20746
 677.3	20773
 677.8	20697
 678.3	20825
 678.9	20758
 679.4	20705
 679.9	20776
 680.4	20786
 681.0	20751
 681.5	20797
 682.0	20765
 682.5	20797
 683.1	20716
 683.6	20769
 684.1	20711
 684.6	20820
 685.1	20757
 685.7	20786
 686.2	20755
 686.7	20718
 687.2	20712
 687.8	20789
 688.3	20727
 688.8	20763
 689.3	20701
 689.8	20730
 690.4	20724
 690.9	20735
 691.4	20730
 691.9	20772
 692.4	20717
 693.0	20791
 693.5	20766
 694.0	20749
 694.5	20743
 695.1	20717
 695.6	20691
 696.1	20760
 696.6	20743
 697.1	20762
 697.7	20794
 698.2	20727
 698.7	20745
 699.2	20707
 699.7	20719
 700.3	20699
 700.8	20676
 701.3	20797
 701.8	20759
 702.3	20705
 702.8	20715
 703.4	20686
 703.9	20706
 704.4	20710
 704.9	20672
 705.4	20688
 706.0	20791
 706.5	20783
 707.0	20692
 707.5	20685
 708.0	20732
 708.5	20681
 709.1	20759
 709.6	20726
 710.1	20694
 710.6	20680
 711.1	20686
 711.7	20715
 712.2	20723
 712.7	20731
 713.2	20711
 713.7	20718
 714.2	20679
 714.8	20767
 715.3	20714
 715.8	20715
 716.3	20731
 716.8	20633
 717.3	20627
 717.8	20741
 718.4	20750
 718.9	20681
 719.4	20771
 719.9	20673
 720.4	20717
 720.9	20729
 721.4	20723
 722.0	20742
 722.5	20727
 723.0	20709
 723.5	20723
 724.0	20689
 724.5	20680
 725.0	20699
 725.6	20627
 726.1	20679
 726.6	20806
 727.1	20737
 727.6	20777
 728.1	20797
 728.6	20753
 729.1	20743
 729.7	20731
 730.2	20758
 730.7	20792
 731.2	20819
 731.7	20813
 732.2	20816
 732.7	20800
 733.2	20846
 733.8	20823
 734.3	20834
 734.8	20803
 735.3	20829
 735.8	20808
 736.3	20773
 736.8	20810
 737.3	20847
 737.8	20787
 738.4	20783
 738.9	20730
 739.4	20828
 739.9	20807
 740.4	20807
 740.9	20803
 741.4	20802
 741.9	20793
 742.4	20817
 742.9	20799
 743.4	20901
 744.0	20815
 744.5	20811
 745.0	20832
 745.5	20917
 746.0	20896
 746.5	20903
 747.0	20848
 747.5	20837
 748.0	20810
 748.5	20830
 749.0	20855
 749.5	20949
 750.0	20791
 750.5	20859
 751.1	20873
 751.6	20879
 752.1	20877
 752.6	20845
 753.1	20881
 753.6	20821
 754.1	20791
 754.6	20850
 755.1	20809
 755.6	20831
 756.1	20747
 756.6	20867
 757.1	20831
 757.6	20825
 758.1	20797
 758.6	20819
 759.1	20755
 759.6	20809
 760.1	20757
 760.7	20727
 761.2	20816
 761.7	20761
 762.2	20756
 762.7	20819
 763.2	20669
 763.7	20775
 764.2	20718
 764.7	20725
 765.2	20767
 765.7	20750
 766.2	20710
 766.7	20769
 767.2	20723
 767.7	20750
 768.2	20732
 768.7	20703
 769.2	20711
 769.7	20770
 770.2	20737
 770.7	20748
 771.2	20727
 771.7	20704
 772.2	20729
 772.7	20779
 773.2	20769
 773.7	20722
 774.2	20671
 774.7	20725
 775.2	20722
 775.7	20699
 776.2	20704
 776.7	20731
 777.2	20655
 777.7	20747
 778.2	20737
 778.7	20774
 779.2	20787
 779.7	20827
 780.2	20660
 780.7	20742
 781.2	20746
 781.7	20821
 782.2	20739
 782.6	20825
 783.1	20834
 783.6	20795
 784.1	20767
 784.6	20757
 785.1	20770
 785.6	20763
 786.1	20798
 786.6	20821
 787.1	20763
 787.6	20773
 788.1	20771
 788.6	20759
 789.1	20759
 789.6	20802
 790.1	20826
 790.6	20825
 791.1	20727
 791.6	20737
 792.0	20769
 792.5	20815
 793.0	20801
 793.5	20801
 794.0	20734
 794.5	20838
 795.0	20828
 795.5	20799
 796.0	20821
 796.5	20773
 797.0	20807
 797.5	20855
 798.0	20711
 798.4	20763
 798.9	20755
 799.4	20788
 799.9	20802
 800.4	20665
 800.9	20773
 801.4	20859
 801.9	20822
 802.4	20757
 802.9	20831
 803.3	20836
 803.8	20811
 804.3	20763
 804.8	20842
 805.3	20798
 805.8	20801
 806.3	20804
 806.8	20793
 807.2	20798
 807.7	20773
 808.2	20809
 808.7	20737
 809.2	20753
 809.7	20695
 810.2	20766
 810.7	20712
 811.1	20740
 811.6	20749
 812.1	20705
 812.6	20671
 813.1	20733
 813.6	20757
 814.1	20734
 814.5	20701
 815.0	20733
 815.5	20700
 816.0	20659
 816.5	20735
 817.0	20687
 817.4	20680
 817.9	20719
 818.4	20655
 818.9	20748
 819.4	20703
 819.9	20686
 820.3	20658
 820.8	20670
 821.3	20674
 821.8	20701
 822.3	20641
 822.7	20627
 823.2	20692
 823.7	20644
 824.2	20653
 824.7	20641
 825.2	20661
 825.6	20647
 826.1	20636
 826.6	20697
 827.1	20684
 827.6	20679
 828.0	20618
 828.5	20602
 829.0	20647
 829.5	20586
 829.9	20597
 830.4	20662
 830.9	20646
 831.4	20675
 831.9	20628
 832.3	20723
 832.8	20660
 833.3	20662
 833.8	20745
 834.2	20741
 834.7	20582
 835.2	20683
 835.7	20686
 836.1	20682
 836.6	20671
 837.1	20674
 837.6	20683
 838.0	20727
 838.5	20756
 839.0	20755
 839.5	20745
 839.9	20667
 840.4	20677
 840.9	20647
 841.4	20691
 841.8	20718
 842.3	20727
 842.8	20751
 843.3	20756
 843.7	20648
 844.2	20639
 844.7	20737
 845.1	20705
 845.6	20624
 846.1	20654
 846.6	20684
 847.0	20583
 847.5	20641
 848.0	20631
 848.4	20675
 848.9	20639
 849.4	20629
 849.8	20651
 850.3	20649
 850.8	20705
 851.3	20663
 851.7	20665
 852.2	20673
 852.7	20666
 853.1	20650
 853.6	20603
 854.1	20650
 854.5	20613
 855.0	20603
 855.5	20595
 855.9	20670
 856.4	20659
 856.9	20565
 857.3	20631
 857.8	20609
 858.3	20661
 858.7	20613
 859.2	20635
 859.7	20629
 860.1	20682
 860.6	20665
 861.1	20597
 861.5	20653
 862.0	20667
 862.4	20636
 862.9	20601
 863.4	20647
 863.8	20649
 864.3	20653
 864.8	20572
 865.2	20621
 865.7	20649
 866.1	20662
 866.6	20578
 867.1	20667
 867.5	20651
 868.0	20624
 868.5	20583
 868.9	20586
 869.4	20692
 869.8	20647
 870.3	20598
 870.8	20675
 871.2	20619
 871.7	20622
 872.1	20569
 872.6	20627
 873.0	20606
 873.5	20702
 874.0	20705
 874.4	20598
 874.9	20647
 875.3	20623
 875.8	20533
 876.2	20331
 876.7	20186
 877.2	19855
 877.6	19439
 878.1	19059
