#xlabel Wavelength (nm)
#ylabel Spectrometer Array Counts
#title Exposure time is 11000 ms
## lambda	counts
 349.8	18775
 350.3	19083
 350.8	19326
 351.3	19474
 351.9	19521
 352.4	19592
 352.9	19631
 353.4	19569
 354.0	19558
 354.5	19594
 355.0	19598
 355.5	19613
 356.0	19574
 356.6	19543
 357.1	19596
 357.6	19570
 358.1	19596
 358.7	19535
 359.2	19550
 359.7	19570
 360.2	19605
 360.8	19566
 361.3	19665
 361.8	19608
 362.3	19636
 362.9	19585
 363.4	19665
 363.9	19660
 364.4	19685
 364.9	19586
 365.5	19659
 366.0	19636
 366.5	19591
 367.0	19637
 367.6	19659
 368.1	19655
 368.6	19582
 369.1	19643
 369.7	19693
 370.2	19602
 370.7	19598
 371.2	19639
 371.8	19693
 372.3	19606
 372.8	19687
 373.3	19696
 373.9	19629
 374.4	19644
 374.9	19689
 375.5	19565
 376.0	19696
 376.5	19655
 377.0	19676
 377.6	19614
 378.1	19690
 378.6	19618
 379.1	19614
 379.7	19586
 380.2	19658
 380.7	19651
 381.2	19606
 381.8	19587
 382.3	19627
 382.8	19604
 383.4	19650
 383.9	19588
 384.4	19748
 384.9	19645
 385.5	19661
 386.0	19656
 386.5	19731
 387.1	19646
 387.6	19670
 388.1	19664
 388.6	19679
 389.2	19660
 389.7	19675
 390.2	19645
 390.8	19733
 391.3	19693
 391.8	19679
 392.3	19658
 392.9	19644
 393.4	19625
 393.9	19693
 394.5	19683
 395.0	19625
 395.5	19639
 396.0	19632
 396.6	19595
 397.1	19688
 397.6	19682
 398.2	19678
 398.7	19671
 399.2	19767
 399.8	19629
 400.3	19700
 400.8	19743
 401.3	19709
 401.9	19721
 402.4	19739
 402.9	19718
 403.5	19740
 404.0	19721
 404.5	19662
 405.1	19657
 405.6	19754
 406.1	19719
 406.7	19718
 407.2	19713
 407.7	19789
 408.2	19780
 408.8	19766
 409.3	19793
 409.8	19829
 410.4	19784
 410.9	19775
 411.4	19713
 412.0	19768
 412.5	19820
 413.0	19757
 413.6	19799
 414.1	19747
 414.6	19775
 415.2	19813
 415.7	19740
 416.2	19789
 416.8	19762
 417.3	19737
 417.8	19755
 418.4	19839
 418.9	19763
 419.4	19893
 420.0	19767
 420.5	19827
 421.0	19759
 421.5	19843
 422.1	19817
 422.6	19867
 423.1	19886
 423.7	19842
 424.2	19825
 424.7	19848
 425.3	19834
 425.8	19845
 426.3	19823
 426.9	19877
 427.4	19809
 427.9	19925
 428.5	19849
 429.0	19883
 429.6	19823
 430.1	19899
 430.6	19887
 431.2	19808
 431.7	19903
 432.2	19851
 432.8	19819
 433.3	19915
 433.8	19905
 434.4	19863
 434.9	19861
 435.4	19905
 436.0	19873
 436.5	19852
 437.0	19924
 437.6	19893
 438.1	19942
 438.6	19940
 439.2	19966
 439.7	19942
 440.2	19886
 440.8	19916
 441.3	19913
 441.8	19918
 442.4	19879
 442.9	19907
 443.5	19947
 444.0	19937
 444.5	19969
 445.1	19870
 445.6	19903
 446.1	19913
 446.7	19926
 447.2	19939
 447.7	19915
 448.3	19983
 448.8	19930
 449.3	19953
 449.9	19885
 450.4	19974
 450.9	19997
 451.5	19983
 452.0	19938
 452.6	19945
 453.1	19984
 453.6	19982
 454.2	19854
 454.7	19917
 455.2	19929
 455.8	19967
 456.3	19897
 456.8	20026
 457.4	19933
 457.9	19937
 458.5	19981
 459.0	19934
 459.5	19975
 460.1	19925
 460.6	19969
 461.1	19954
 461.7	20005
 462.2	19955
 462.7	19998
 463.3	19913
 463.8	19990
 464.4	20058
 464.9	19993
 465.4	20051
 466.0	19943
 466.5	20018
 467.0	19938
 467.6	20007
 468.1	20085
 468.7	20005
 469.2	19924
 469.7	20012
 470.3	19977
 470.8	20011
 471.3	19977
 471.9	19925
 472.4	19976
 473.0	20009
 473.5	20014
 474.0	20001
 474.6	19996
 475.1	19979
 475.6	20049
 476.2	20049
 476.7	20019
 477.3	20073
 477.8	20006
 478.3	19923
 478.9	20127
 479.4	20000
 479.9	20011
 480.5	19983
 481.0	19998
 481.6	20020
 482.1	20073
 482.6	20046
 483.2	20046
 483.7	20159
 484.2	20078
 484.8	19897
 485.3	19999
 485.9	20067
 486.4	20021
 486.9	20031
 487.5	19991
 488.0	19984
 488.6	20039
 489.1	20039
 489.6	20091
 490.2	20081
 490.7	20029
 491.2	19998
 491.8	20047
 492.3	19991
 492.9	20047
 493.4	20057
 493.9	20069
 494.5	20071
 495.0	20148
 495.6	20058
 496.1	20073
 496.6	20132
 497.2	20045
 497.7	20008
 498.2	20103
 498.8	20129
 499.3	20037
 499.9	20088
 500.4	20088
 500.9	20066
 501.5	20047
 502.0	20112
 502.6	20085
 503.1	20167
 503.6	20119
 504.2	20061
 504.7	20057
 505.2	20109
 505.8	20089
 506.3	20163
 506.9	20149
 507.4	20098
 507.9	20063
 508.5	20075
 509.0	20107
 509.6	20163
 510.1	20118
 510.6	20145
 511.2	20155
 511.7	20130
 512.2	20185
 512.8	20194
 513.3	20145
 513.9	20127
 514.4	20183
 514.9	20256
 515.5	20138
 516.0	20218
 516.6	20190
 517.1	20240
 517.6	20215
 518.2	20201
 518.7	20140
 519.3	20202
 519.8	20251
 520.3	20253
 520.9	20209
 521.4	20221
 521.9	20290
 522.5	20206
 523.0	20240
 523.6	20282
 524.1	20126
 524.6	20181
 525.2	20212
 525.7	20239
 526.3	20155
 526.8	20250
 527.3	20191
 527.9	20205
 528.4	20184
 528.9	20241
 529.5	20245
 530.0	20220
 530.6	20262
 531.1	20256
 531.6	20154
 532.2	20271
 532.7	20213
 533.3	20238
 533.8	20356
 534.3	20375
 534.9	20361
 535.4	20293
 536.0	20349
 536.5	20382
 537.0	20333
 537.6	20342
 538.1	20390
 538.6	20394
 539.2	20323
 539.7	20331
 540.3	20430
 540.8	20379
 541.3	20333
 541.9	20362
 542.4	20357
 543.0	20425
 543.5	20381
 544.0	20358
 544.6	20410
 545.1	20413
 545.6	20458
 546.2	20438
 546.7	20341
 547.3	20409
 547.8	20391
 548.3	20439
 548.9	20352
 549.4	20358
 550.0	20324
 550.5	20396
 551.0	20449
 551.6	20391
 552.1	20413
 552.6	20411
 553.2	20383
 553.7	20358
 554.3	20401
 554.8	20473
 555.3	20317
 555.9	20390
 556.4	20344
 556.9	20437
 557.5	20464
 558.0	20409
 558.6	20386
 559.1	20458
 559.6	20431
 560.2	20422
 560.7	20423
 561.3	20382
 561.8	20355
 562.3	20469
 562.9	20447
 563.4	20476
 563.9	20462
 564.5	20460
 565.0	20447
 565.6	20467
 566.1	20465
 566.6	20467
 567.2	20449
 567.7	20555
 568.2	20450
 568.8	20468
 569.3	20431
 569.9	20507
 570.4	20491
 570.9	20463
 571.5	20454
 572.0	20444
 572.5	20506
 573.1	20438
 573.6	20495
 574.1	20473
 574.7	20469
 575.2	20435
 575.8	20472
 576.3	20543
 576.8	20498
 577.4	20504
 577.9	20515
 578.4	20465
 579.0	20462
 579.5	20567
 580.1	20485
 580.6	20478
 581.1	20551
 581.7	20566
 582.2	20490
 582.7	20537
 583.3	20571
 583.8	20539
 584.3	20478
 584.9	20531
 585.4	20527
 586.0	20497
 586.5	20529
 587.0	20479
 587.6	20560
 588.1	20504
 588.6	20575
 589.2	20512
 589.7	20533
 590.2	20515
 590.8	20515
 591.3	20541
 591.9	20485
 592.4	20553
 592.9	20489
 593.5	20482
 594.0	20481
 594.5	20500
 595.1	20491
 595.6	20474
 596.1	20540
 596.7	20505
 597.2	20551
 597.7	20495
 598.3	20511
 598.8	20482
 599.3	20507
 599.9	20483
 600.4	20483
 601.0	20487
 601.5	20483
 602.0	20477
 602.6	20426
 603.1	20446
 603.6	20439
 604.2	20550
 604.7	20442
 605.2	20520
 605.8	20425
 606.3	20447
 606.8	20520
 607.4	20485
 607.9	20517
 608.4	20454
 609.0	20487
 609.5	20530
 610.0	20496
 610.6	20593
 611.1	20494
 611.6	20509
 612.2	20505
 612.7	20567
 613.2	20548
 613.8	20461
 614.3	20484
 614.8	20534
 615.4	20443
 615.9	20525
 616.4	20575
 617.0	20509
 617.5	20604
 618.0	20599
 618.6	20509
 619.1	20527
 619.6	20599
 620.2	20579
 620.7	20622
 621.2	20571
 621.8	20597
 622.3	20613
 622.8	20561
 623.4	20585
 623.9	20637
 624.4	20603
 625.0	20597
 625.5	20603
 626.0	20616
 626.6	20655
 627.1	20649
 627.6	20601
 628.2	20568
 628.7	20599
 629.2	20583
 629.8	20618
 630.3	20637
 630.8	20627
 631.4	20612
 631.9	20644
 632.4	20543
 632.9	20575
 633.5	20584
 634.0	20547
 634.5	20651
 635.1	20578
 635.6	20569
 636.1	20555
 636.7	20626
 637.2	20625
 637.7	20531
 638.3	20649
 638.8	20647
 639.3	20666
 639.8	20626
 640.4	20647
 640.9	20673
 641.4	20581
 642.0	20577
 642.5	20601
 643.0	20574
 643.6	20661
 644.1	20623
 644.6	20631
 645.1	20677
 645.7	20655
 646.2	20613
 646.7	20629
 647.3	20660
 647.8	20657
 648.3	20635
 648.9	20663
 649.4	20575
 649.9	20647
 650.4	20651
 651.0	20686
 651.5	20695
 652.0	20746
 652.6	20677
 653.1	20755
 653.6	20652
 654.1	20730
 654.7	20677
 655.2	20756
 655.7	20785
 656.3	20793
 656.8	20727
 657.3	20771
 657.8	20720
 658.4	20700
 658.9	20706
 659.4	20793
 659.9	20773
 660.5	20746
 661.0	20799
 661.5	20831
 662.1	20790
 662.6	20796
 663.1	20755
 663.6	20836
 664.2	20790
 664.7	20757
 665.2	20678
 665.7	20812
 666.3	20779
 666.8	20788
 667.3	20791
 667.8	20753
 668.4	20787
 668.9	20793
 669.4	20783
 669.9	20819
 670.5	20752
 671.0	20780
 671.5	20733
 672.0	20804
 672.6	20817
 673.1	20838
 673.6	20755
 674.1	20793
 674.7	20783
 675.2	20842
 675.7	20701
 676.2	20721
 676.8	20774
 677.3	20797
 677.8	20718
 678.3	20851
 678.9	20785
 679.4	20734
 679.9	20806
 680.4	20810
 681.0	20777
 681.5	20825
 682.0	20795
 682.5	20824
 683.1	20739
 683.6	20794
 684.1	20739
 684.6	20851
 685.1	20784
 685.7	20815
 686.2	20782
 686.7	20746
 687.2	20737
 687.8	20819
 688.3	20754
 688.8	20790
 689.3	20722
 689.8	20760
 690.4	20757
 690.9	20760
 691.4	20760
 691.9	20798
 692.4	20745
 693.0	20826
 693.5	20797
 694.0	20774
 694.5	20769
 695.1	20747
 695.6	20713
 696.1	20790
 696.6	20773
 697.1	20795
 697.7	20823
 698.2	20757
 698.7	20777
 699.2	20734
 699.7	20748
 700.3	20727
 700.8	20706
 701.3	20827
 701.8	20786
 702.3	20731
 702.8	20737
 703.4	20716
 703.9	20731
 704.4	20733
 704.9	20699
 705.4	20707
 706.0	20819
 706.5	20811
 707.0	20721
 707.5	20721
 708.0	20753
 708.5	20705
 709.1	20786
 709.6	20749
 710.1	20719
 710.6	20703
 711.1	20709
 711.7	20736
 712.2	20750
 712.7	20757
 713.2	20741
 713.7	20747
 714.2	20706
 714.8	20790
 715.3	20740
 715.8	20746
 716.3	20757
 716.8	20663
 717.3	20649
 717.8	20765
 718.4	20777
 718.9	20711
 719.4	20799
 719.9	20694
 720.4	20747
 720.9	20753
 721.4	20753
 722.0	20775
 722.5	20760
 723.0	20739
 723.5	20754
 724.0	20710
 724.5	20702
 725.0	20723
 725.6	20652
 726.1	20702
 726.6	20830
 727.1	20771
 727.6	20804
 728.1	20824
 728.6	20785
 729.1	20769
 729.7	20756
 730.2	20781
 730.7	20820
 731.2	20845
 731.7	20838
 732.2	20841
 732.7	20825
 733.2	20877
 733.8	20850
 734.3	20865
 734.8	20827
 735.3	20851
 735.8	20831
 736.3	20805
 736.8	20835
 737.3	20875
 737.8	20819
 738.4	20813
 738.9	20759
 739.4	20849
 739.9	20837
 740.4	20843
 740.9	20830
 741.4	20824
 741.9	20827
 742.4	20845
 742.9	20827
 743.4	20919
 744.0	20842
 744.5	20839
 745.0	20863
 745.5	20948
 746.0	20924
 746.5	20928
 747.0	20878
 747.5	20869
 748.0	20836
 748.5	20862
 749.0	20887
 749.5	20979
 750.0	20817
 750.5	20888
 751.1	20903
 751.6	20904
 752.1	20904
 752.6	20867
 753.1	20909
 753.6	20846
 754.1	20819
 754.6	20874
 755.1	20833
 755.6	20855
 756.1	20772
 756.6	20887
 757.1	20862
 757.6	20850
 758.1	20823
 758.6	20847
 759.1	20779
 759.6	20831
 760.1	20783
 760.7	20752
 761.2	20845
 761.7	20790
 762.2	20787
 762.7	20847
 763.2	20695
 763.7	20806
 764.2	20746
 764.7	20751
 765.2	20794
 765.7	20778
 766.2	20739
 766.7	20797
 767.2	20757
 767.7	20781
 768.2	20764
 768.7	20734
 769.2	20739
 769.7	20794
 770.2	20765
 770.7	20771
 771.2	20754
 771.7	20734
 772.2	20755
 772.7	20808
 773.2	20792
 773.7	20752
 774.2	20701
 774.7	20754
 775.2	20753
 775.7	20733
 776.2	20732
 776.7	20761
 777.2	20685
 777.7	20774
 778.2	20765
 778.7	20802
 779.2	20822
 779.7	20849
 780.2	20690
 780.7	20762
 781.2	20771
 781.7	20851
 782.2	20766
 782.6	20850
 783.1	20862
 783.6	20825
 784.1	20796
 784.6	20785
 785.1	20796
 785.6	20794
 786.1	20827
 786.6	20850
 787.1	20791
 787.6	20798
 788.1	20797
 788.6	20779
 789.1	20786
 789.6	20833
 790.1	20850
 790.6	20854
 791.1	20751
 791.6	20767
 792.0	20795
 792.5	20840
 793.0	20830
 793.5	20833
 794.0	20765
 794.5	20873
 795.0	20859
 795.5	20832
 796.0	20849
 796.5	20802
 797.0	20839
 797.5	20882
 798.0	20740
 798.4	20787
 798.9	20780
 799.4	20816
 799.9	20832
 800.4	20687
 800.9	20799
 801.4	20886
 801.9	20853
 802.4	20787
 802.9	20863
 803.3	20863
 803.8	20841
 804.3	20792
 804.8	20871
 805.3	20824
 805.8	20821
 806.3	20830
 806.8	20824
 807.2	20827
 807.7	20803
 808.2	20840
 808.7	20767
 809.2	20775
 809.7	20719
 810.2	20794
 810.7	20739
 811.1	20766
 811.6	20771
 812.1	20733
 812.6	20698
 813.1	20756
 813.6	20783
 814.1	20765
 814.5	20729
 815.0	20763
 815.5	20730
 816.0	20687
 816.5	20767
 817.0	20717
 817.4	20705
 817.9	20746
 818.4	20682
 818.9	20778
 819.4	20733
 819.9	20711
 820.3	20685
 820.8	20691
 821.3	20703
 821.8	20728
 822.3	20667
 822.7	20651
 823.2	20718
 823.7	20673
 824.2	20685
 824.7	20667
 825.2	20689
 825.6	20669
 826.1	20665
 826.6	20725
 827.1	20712
 827.6	20705
 828.0	20642
 828.5	20625
 829.0	20669
 829.5	20611
 829.9	20621
 830.4	20687
 830.9	20673
 831.4	20706
 831.9	20662
 832.3	20748
 832.8	20689
 833.3	20691
 833.8	20776
 834.2	20767
 834.7	20605
 835.2	20711
 835.7	20709
 836.1	20709
 836.6	20695
 837.1	20702
 837.6	20709
 838.0	20755
 838.5	20786
 839.0	20783
 839.5	20776
 839.9	20691
 840.4	20701
 840.9	20667
 841.4	20715
 841.8	20747
 842.3	20759
 842.8	20783
 843.3	20782
 843.7	20674
 844.2	20670
 844.7	20759
 845.1	20733
 845.6	20654
 846.1	20686
 846.6	20715
 847.0	20610
 847.5	20666
 848.0	20657
 848.4	20699
 848.9	20668
 849.4	20654
 849.8	20684
 850.3	20678
 850.8	20731
 851.3	20697
 851.7	20694
 852.2	20699
 852.7	20694
 853.1	20671
 853.6	20634
 854.1	20671
 854.5	20638
 855.0	20630
 855.5	20624
 855.9	20691
 856.4	20690
 856.9	20595
 857.3	20663
 857.8	20635
 858.3	20687
 858.7	20643
 859.2	20662
 859.7	20654
 860.1	20713
 860.6	20685
 861.1	20630
 861.5	20677
 862.0	20688
 862.4	20670
 862.9	20630
 863.4	20670
 863.8	20676
 864.3	20682
 864.8	20597
 865.2	20651
 865.7	20672
 866.1	20694
 866.6	20607
 867.1	20691
 867.5	20678
 868.0	20655
 868.5	20609
 868.9	20614
 869.4	20721
 869.8	20677
 870.3	20629
 870.8	20699
 871.2	20651
 871.7	20641
 872.1	20587
 872.6	20633
 873.0	20616
 873.5	20698
 874.0	20699
 874.4	20594
 874.9	20663
 875.3	20675
 875.8	20647
 876.2	20529
 876.7	20475
 877.2	20191
 877.6	19761
 878.1	19247
