#xlabel Wavelength (nm)
#ylabel Spectrometer Array Counts
#title Exposure time is 4000 ms
## lambda	counts
 349.8	9200
 350.3	9387
 350.8	9541
 351.3	9630
 351.9	9670
 352.4	9724
 352.9	9776
 353.4	9747
 354.0	9730
 354.5	9737
 355.0	9739
 355.5	9730
 356.0	9697
 356.6	9691
 357.1	9716
 357.6	9717
 358.1	9735
 358.7	9730
 359.2	9757
 359.7	9783
 360.2	9821
 360.8	9829
 361.3	9919
 361.8	9929
 362.3	9958
 362.9	9974
 363.4	10040
 363.9	10057
 364.4	10068
 364.9	10047
 365.5	10105
 366.0	10098
 366.5	10091
 367.0	10121
 367.6	10144
 368.1	10149
 368.6	10130
 369.1	10179
 369.7	10235
 370.2	10224
 370.7	10238
 371.2	10299
 371.8	10364
 372.3	10361
 372.8	10416
 373.3	10438
 373.9	10433
 374.4	10454
 374.9	10481
 375.5	10451
 376.0	10536
 376.5	10531
 377.0	10559
 377.6	10558
 378.1	10646
 378.6	10660
 379.1	10696
 379.7	10738
 380.2	10827
 380.7	10876
 381.2	10888
 381.8	10921
 382.3	10989
 382.8	11024
 383.4	11067
 383.9	11079
 384.4	11155
 384.9	11129
 385.5	11143
 386.0	11127
 386.5	11179
 387.1	11126
 387.6	11123
 388.1	11138
 388.6	11154
 389.2	11150
 389.7	11179
 390.2	11204
 390.8	11287
 391.3	11306
 391.8	11364
 392.3	11420
 392.9	11502
 393.4	11559
 393.9	11677
 394.5	11766
 395.0	11815
 395.5	11894
 396.0	11957
 396.6	12015
 397.1	12099
 397.6	12119
 398.2	12130
 398.7	12132
 399.2	12175
 399.8	12097
 400.3	12113
 400.8	12127
 401.3	12118
 401.9	12124
 402.4	12120
 402.9	12131
 403.5	12161
 404.0	12178
 404.5	12173
 405.1	12223
 405.6	12325
 406.1	12355
 406.7	12421
 407.2	12483
 407.7	12610
 408.2	12659
 408.8	12727
 409.3	12806
 409.8	12891
 410.4	12936
 410.9	12987
 411.4	13005
 412.0	13072
 412.5	13120
 413.0	13133
 413.6	13187
 414.1	13205
 414.6	13259
 415.2	13305
 415.7	13305
 416.2	13364
 416.8	13383
 417.3	13399
 417.8	13449
 418.4	13543
 418.9	13534
 419.4	13637
 420.0	13616
 420.5	13689
 421.0	13702
 421.5	13779
 422.1	13798
 422.6	13876
 423.1	13915
 423.7	13950
 424.2	13969
 424.7	14003
 425.3	13973
 425.8	13988
 426.3	13980
 426.9	14022
 427.4	13988
 427.9	14051
 428.5	14041
 429.0	14075
 429.6	14049
 430.1	14139
 430.6	14223
 431.2	14285
 431.7	14403
 432.2	14466
 432.8	14540
 433.3	14707
 433.8	14791
 434.4	14875
 434.9	14994
 435.4	15117
 436.0	15211
 436.5	15291
 437.0	15411
 437.6	15471
 438.1	15552
 438.6	15601
 439.2	15659
 439.7	15663
 440.2	15641
 440.8	15627
 441.3	15618
 441.8	15606
 442.4	15551
 442.9	15526
 443.5	15499
 444.0	15459
 444.5	15448
 445.1	15385
 445.6	15400
 446.1	15414
 446.7	15427
 447.2	15475
 447.7	15507
 448.3	15581
 448.8	15601
 449.3	15686
 449.9	15754
 450.4	15909
 450.9	16043
 451.5	16135
 452.0	16247
 452.6	16397
 453.1	16532
 453.6	16691
 454.2	16773
 454.7	16944
 455.2	17067
 455.8	17190
 456.3	17255
 456.8	17416
 457.4	17453
 457.9	17493
 458.5	17531
 459.0	17519
 459.5	17564
 460.1	17538
 460.6	17509
 461.1	17505
 461.7	17519
 462.2	17463
 462.7	17461
 463.3	17401
 463.8	17411
 464.4	17409
 464.9	17399
 465.4	17421
 466.0	17399
 466.5	17453
 467.0	17437
 467.6	17514
 468.1	17587
 468.7	17585
 469.2	17640
 469.7	17742
 470.3	17804
 470.8	17873
 471.3	17966
 471.9	18042
 472.4	18146
 473.0	18229
 473.5	18325
 474.0	18389
 474.6	18441
 475.1	18532
 475.6	18627
 476.2	18665
 476.7	18703
 477.3	18770
 477.8	18765
 478.3	18751
 478.9	18872
 479.4	18907
 479.9	18938
 480.5	18970
 481.0	19041
 481.6	19122
 482.1	19212
 482.6	19279
 483.2	19357
 483.7	19471
 484.2	19511
 484.8	19513
 485.3	19631
 485.9	19726
 486.4	19753
 486.9	19812
 487.5	19843
 488.0	19902
 488.6	19990
 489.1	20057
 489.6	20123
 490.2	20177
 490.7	20192
 491.2	20238
 491.8	20282
 492.3	20287
 492.9	20349
 493.4	20372
 493.9	20371
 494.5	20368
 495.0	20386
 495.6	20306
 496.1	20289
 496.6	20294
 497.2	20204
 497.7	20145
 498.2	20124
 498.8	20103
 499.3	20059
 499.9	20032
 500.4	19965
 500.9	19949
 501.5	19987
 502.0	20072
 502.6	20075
 503.1	20167
 503.6	20211
 504.2	20254
 504.7	20330
 505.2	20452
 505.8	20561
 506.3	20716
 506.9	20842
 507.4	20951
 507.9	21071
 508.5	21267
 509.0	21442
 509.6	21647
 510.1	21735
 510.6	21905
 511.2	22103
 511.7	22248
 512.2	22322
 512.8	22547
 513.3	22663
 513.9	22772
 514.4	22876
 514.9	23047
 515.5	23009
 516.0	23065
 516.6	23083
 517.1	23102
 517.6	23038
 518.2	22999
 518.7	22893
 519.3	22828
 519.8	22777
 520.3	22685
 520.9	22589
 521.4	22475
 521.9	22403
 522.5	22269
 523.0	22213
 523.6	22151
 524.1	21998
 524.6	21910
 525.2	21855
 525.7	21894
 526.3	21873
 526.8	21906
 527.3	21869
 527.9	21937
 528.4	21933
 528.9	22023
 529.5	22069
 530.0	22135
 530.6	22218
 531.1	22326
 531.6	22367
 532.2	22547
 532.7	22641
 533.3	22796
 533.8	22979
 534.3	23108
 534.9	23269
 535.4	23416
 536.0	23575
 536.5	23797
 537.0	23880
 537.6	24014
 538.1	24184
 538.6	24347
 539.2	24457
 539.7	24555
 540.3	24723
 540.8	24758
 541.3	24809
 541.9	24907
 542.4	24974
 543.0	25020
 543.5	25046
 544.0	25026
 544.6	25053
 545.1	25048
 545.6	25059
 546.2	25022
 546.7	24888
 547.3	25018
 547.8	24907
 548.3	24914
 548.9	24838
 549.4	24779
 550.0	24736
 550.5	24738
 551.0	24701
 551.6	24654
 552.1	24620
 552.6	24583
 553.2	24549
 553.7	24518
 554.3	24511
 554.8	24515
 555.3	24407
 555.9	24449
 556.4	24455
 556.9	24565
 557.5	24597
 558.0	24589
 558.6	24583
 559.1	24685
 559.6	24721
 560.2	24766
 560.7	24808
 561.3	24806
 561.8	24904
 562.3	25034
 562.9	25071
 563.4	25137
 563.9	25171
 564.5	25256
 565.0	25270
 565.6	25335
 566.1	25355
 566.6	25339
 567.2	25355
 567.7	25475
 568.2	25430
 568.8	25402
 569.3	25395
 569.9	25414
 570.4	25427
 570.9	25388
 571.5	25383
 572.0	25407
 572.5	25420
 573.1	25423
 573.6	25438
 574.1	25463
 574.7	25493
 575.2	25499
 575.8	25557
 576.3	25617
 576.8	25645
 577.4	25666
 577.9	25805
 578.4	25805
 579.0	25898
 579.5	25957
 580.1	25982
 580.6	26116
 581.1	26229
 581.7	26273
 582.2	26302
 582.7	26401
 583.3	26491
 583.8	26499
 584.3	26553
 584.9	26601
 585.4	26627
 586.0	26699
 586.5	26780
 587.0	26783
 587.6	26857
 588.1	26873
 588.6	26956
 589.2	26952
 589.7	26991
 590.2	27003
 590.8	26989
 591.3	27009
 591.9	26991
 592.4	27015
 592.9	26926
 593.5	26885
 594.0	26861
 594.5	26774
 595.1	26673
 595.6	26663
 596.1	26516
 596.7	26453
 597.2	26381
 597.7	26314
 598.3	26295
 598.8	26190
 599.3	26151
 599.9	26059
 600.4	25998
 601.0	25897
 601.5	25868
 602.0	25756
 602.6	25737
 603.1	25747
 603.6	25701
 604.2	25747
 604.7	25721
 605.2	25714
 605.8	25723
 606.3	25685
 606.8	25795
 607.4	25843
 607.9	25880
 608.4	25886
 609.0	25935
 609.5	26022
 610.0	26052
 610.6	26158
 611.1	26151
 611.6	26215
 612.2	26281
 612.7	26361
 613.2	26444
 613.8	26568
 614.3	26547
 614.8	26705
 615.4	26730
 615.9	26911
 616.4	27137
 617.0	27118
 617.5	27305
 618.0	27441
 618.6	27539
 619.1	27631
 619.6	27838
 620.2	28068
 620.7	28271
 621.2	28385
 621.8	28548
 622.3	28721
 622.8	28837
 623.4	28962
 623.9	29112
 624.4	29177
 625.0	29207
 625.5	29377
 626.0	29386
 626.6	29457
 627.1	29419
 627.6	29346
 628.2	29368
 628.7	29497
 629.2	29375
 629.8	29351
 630.3	29313
 630.8	29327
 631.4	29191
 631.9	29223
 632.4	28949
 632.9	28950
 633.5	28735
 634.0	28693
 634.5	28634
 635.1	28474
 635.6	28358
 636.1	28290
 636.7	28185
 637.2	28047
 637.7	28009
 638.3	27883
 638.8	27743
 639.3	27693
 639.8	27629
 640.4	27575
 640.9	27589
 641.4	27374
 642.0	27333
 642.5	27321
 643.0	27243
 643.6	27250
 644.1	27190
 644.6	27179
 645.1	27173
 645.7	27221
 646.2	27153
 646.7	27169
 647.3	27159
 647.8	27204
 648.3	27183
 648.9	27254
 649.4	27271
 649.9	27295
 650.4	27334
 651.0	27452
 651.5	27454
 652.0	27557
 652.6	27550
 653.1	27696
 653.6	27702
 654.1	27754
 654.7	27852
 655.2	28018
 655.7	28013
 656.3	28051
 656.8	28155
 657.3	28255
 657.8	28275
 658.4	28364
 658.9	28400
 659.4	28569
 659.9	28547
 660.5	28590
 661.0	28667
 661.5	28721
 662.1	28738
 662.6	28762
 663.1	28771
 663.6	28851
 664.2	28818
 664.7	28835
 665.2	28834
 665.7	28829
 666.3	28809
 666.8	28799
 667.3	28816
 667.8	28737
 668.4	28805
 668.9	28713
 669.4	28666
 669.9	28668
 670.5	28628
 671.0	28595
 671.5	28521
 672.0	28489
 672.6	28483
 673.1	28498
 673.6	28379
 674.1	28323
 674.7	28333
 675.2	28299
 675.7	28215
 676.2	28164
 676.8	28187
 677.3	28098
 677.8	28035
 678.3	28081
 678.9	27951
 679.4	27911
 679.9	27879
 680.4	27896
 681.0	27830
 681.5	27791
 682.0	27755
 682.5	27779
 683.1	27634
 683.6	27667
 684.1	27570
 684.6	27613
 685.1	27548
 685.7	27511
 686.2	27493
 686.7	27515
 687.2	27492
 687.8	27463
 688.3	27414
 688.8	27399
 689.3	27381
 689.8	27403
 690.4	27371
 690.9	27400
 691.4	27386
 691.9	27374
 692.4	27368
 693.0	27442
 693.5	27443
 694.0	27350
 694.5	27375
 695.1	27396
 695.6	27335
 696.1	27403
 696.6	27418
 697.1	27388
 697.7	27442
 698.2	27391
 698.7	27375
 699.2	27363
 699.7	27367
 700.3	27355
 700.8	27327
 701.3	27362
 701.8	27254
 702.3	27199
 702.8	27308
 703.4	27163
 703.9	27137
 704.4	27093
 704.9	27044
 705.4	26987
 706.0	26993
 706.5	26939
 707.0	26843
 707.5	26790
 708.0	26741
 708.5	26659
 709.1	26641
 709.6	26563
 710.1	26483
 710.6	26420
 711.1	26389
 711.7	26299
 712.2	26247
 712.7	26168
 713.2	26089
 713.7	25972
 714.2	25883
 714.8	25876
 715.3	25721
 715.8	25692
 716.3	25613
 716.8	25485
 717.3	25423
 717.8	25449
 718.4	25397
 718.9	25355
 719.4	25360
 719.9	25287
 720.4	25352
 720.9	25341
 721.4	25332
 722.0	25398
 722.5	25425
 723.0	25455
 723.5	25468
 724.0	25490
 724.5	25538
 725.0	25552
 725.6	25543
 726.1	25664
 726.6	25751
 727.1	25761
 727.6	25794
 728.1	25814
 728.6	25782
 729.1	25827
 729.7	25817
 730.2	25859
 730.7	25913
 731.2	25930
 731.7	25929
 732.2	25995
 732.7	26019
 733.2	26035
 733.8	26049
 734.3	26075
 734.8	26067
 735.3	26150
 735.8	26216
 736.3	26270
 736.8	26324
 737.3	26382
 737.8	26391
 738.4	26459
 738.9	26452
 739.4	26535
 739.9	26499
 740.4	26579
 740.9	26606
 741.4	26622
 741.9	26615
 742.4	26639
 742.9	26631
 743.4	26666
 744.0	26612
 744.5	26607
 745.0	26572
 745.5	26526
 746.0	26503
 746.5	26579
 747.0	26541
 747.5	26519
 748.0	26491
 748.5	26451
 749.0	26449
 749.5	26477
 750.0	26361
 750.5	26364
 751.1	26357
 751.6	26306
 752.1	26217
 752.6	26150
 753.1	26171
 753.6	26111
 754.1	26024
 754.6	26053
 755.1	25993
 755.6	25945
 756.1	25873
 756.6	25876
 757.1	25821
 757.6	25743
 758.1	25663
 758.6	25627
 759.1	25534
 759.6	25494
 760.1	25361
 760.7	25256
 761.2	25271
 761.7	25210
 762.2	25155
 762.7	25126
 763.2	25039
 763.7	25025
 764.2	24935
 764.7	24893
 765.2	24838
 765.7	24765
 766.2	24684
 766.7	24655
 767.2	24581
 767.7	24523
 768.2	24447
 768.7	24353
 769.2	24297
 769.7	24259
 770.2	24207
 770.7	24199
 771.2	24152
 771.7	24123
 772.2	24116
 772.7	24114
 773.2	24062
 773.7	24003
 774.2	23956
 774.7	23972
 775.2	23936
 775.7	23903
 776.2	23879
 776.7	23885
 777.2	23844
 777.7	23855
 778.2	23824
 778.7	23831
 779.2	23813
 779.7	23831
 780.2	23769
 780.7	23805
 781.2	23791
 781.7	23813
 782.2	23793
 782.6	23812
 783.1	23788
 783.6	23790
 784.1	23767
 784.6	23769
 785.1	23800
 785.6	23790
 786.1	23802
 786.6	23845
 787.1	23793
 787.6	23790
 788.1	23786
 788.6	23785
 789.1	23783
 789.6	23779
 790.1	23776
 790.6	23761
 791.1	23687
 791.6	23665
 792.0	23657
 792.5	23676
 793.0	23644
 793.5	23595
 794.0	23494
 794.5	23501
 795.0	23499
 795.5	23459
 796.0	23419
 796.5	23358
 797.0	23309
 797.5	23288
 798.0	23155
 798.4	23133
 798.9	23067
 799.4	23012
 799.9	22937
 800.4	22827
 800.9	22813
 801.4	22754
 801.9	22647
 802.4	22561
 802.9	22476
 803.3	22359
 803.8	22307
 804.3	22233
 804.8	22188
 805.3	22085
 805.8	21979
 806.3	21905
 806.8	21820
 807.2	21717
 807.7	21623
 808.2	21583
 808.7	21476
 809.2	21386
 809.7	21267
 810.2	21237
 810.7	21131
 811.1	21049
 811.6	20981
 812.1	20906
 812.6	20797
 813.1	20737
 813.6	20695
 814.1	20625
 814.5	20551
 815.0	20489
 815.5	20395
 816.0	20317
 816.5	20297
 817.0	20220
 817.4	20161
 817.9	20138
 818.4	20040
 818.9	20028
 819.4	19940
 819.9	19893
 820.3	19854
 820.8	19799
 821.3	19748
 821.8	19716
 822.3	19630
 822.7	19569
 823.2	19588
 823.7	19550
 824.2	19519
 824.7	19465
 825.2	19427
 825.6	19399
 826.1	19373
 826.6	19341
 827.1	19321
 827.6	19306
 828.0	19263
 828.5	19221
 829.0	19199
 829.5	19165
 829.9	19157
 830.4	19140
 830.9	19111
 831.4	19110
 831.9	19078
 832.3	19097
 832.8	19057
 833.3	19034
 833.8	19067
 834.2	19042
 834.7	18947
 835.2	18997
 835.7	18987
 836.1	18954
 836.6	18924
 837.1	18918
 837.6	18918
 838.0	18917
 838.5	18927
 839.0	18917
 839.5	18908
 839.9	18858
 840.4	18855
 840.9	18843
 841.4	18852
 841.8	18853
 842.3	18845
 842.8	18847
 843.3	18828
 843.7	18758
 844.2	18715
 844.7	18765
 845.1	18743
 845.6	18685
 846.1	18685
 846.6	18709
 847.0	18654
 847.5	18654
 848.0	18628
 848.4	18637
 848.9	18607
 849.4	18541
 849.8	18516
 850.3	18511
 850.8	18516
 851.3	18469
 851.7	18438
 852.2	18422
 852.7	18396
 853.1	18349
 853.6	18287
 854.1	18293
 854.5	18243
 855.0	18193
 855.5	18169
 855.9	18177
 856.4	18129
 856.9	18046
 857.3	18035
 857.8	18006
 858.3	17939
 858.7	17794
 859.2	17803
 859.7	17847
 860.1	17866
 860.6	17812
 861.1	17726
 861.5	17691
 862.0	17628
 862.4	17546
 862.9	17487
 863.4	17487
 863.8	17442
 864.3	17367
 864.8	17256
 865.2	17250
 865.7	17223
 866.1	17170
 866.6	17090
 867.1	17101
 867.5	17063
 868.0	17006
 868.5	16939
 868.9	16921
 869.4	16950
 869.8	16900
 870.3	16869
 870.8	16890
 871.2	16874
 871.7	16838
 872.1	16788
 872.6	16816
 873.0	16792
 873.5	16808
 874.0	16779
 874.4	16715
 874.9	16727
 875.3	16693
 875.8	16663
 876.2	16574
 876.7	16499
 877.2	16276
 877.6	15946
 878.1	15445
