#xlabel Wavelength (nm)
#ylabel Spectrometer Array Counts
#title Exposure time is 4000 ms
## lambda	counts
 349.8	9231
 350.3	9417
 350.8	9573
 351.3	9662
 351.9	9703
 352.4	9754
 352.9	9804
 353.4	9778
 354.0	9765
 354.5	9772
 355.0	9772
 355.5	9765
 356.0	9735
 356.6	9726
 357.1	9755
 357.6	9751
 358.1	9773
 358.7	9763
 359.2	9793
 359.7	9821
 360.2	9862
 360.8	9871
 361.3	9960
 361.8	9967
 362.3	10003
 362.9	10017
 363.4	10086
 363.9	10103
 364.4	10115
 364.9	10095
 365.5	10154
 366.0	10145
 366.5	10139
 367.0	10174
 367.6	10198
 368.1	10209
 368.6	10183
 369.1	10235
 369.7	10292
 370.2	10281
 370.7	10299
 371.2	10361
 371.8	10429
 372.3	10423
 372.8	10476
 373.3	10505
 373.9	10505
 374.4	10524
 374.9	10553
 375.5	10526
 376.0	10607
 376.5	10606
 377.0	10634
 377.6	10633
 378.1	10725
 378.6	10740
 379.1	10781
 379.7	10822
 380.2	10915
 380.7	10968
 381.2	10976
 381.8	11017
 382.3	11086
 382.8	11123
 383.4	11171
 383.9	11181
 384.4	11260
 384.9	11237
 385.5	11243
 386.0	11236
 386.5	11289
 387.1	11238
 387.6	11231
 388.1	11247
 388.6	11267
 389.2	11267
 389.7	11297
 390.2	11326
 390.8	11413
 391.3	11434
 391.8	11492
 392.3	11559
 392.9	11639
 393.4	11709
 393.9	11819
 394.5	11914
 395.0	11970
 395.5	12051
 396.0	12118
 396.6	12177
 397.1	12262
 397.6	12284
 398.2	12297
 398.7	12303
 399.2	12346
 399.8	12263
 400.3	12284
 400.8	12303
 401.3	12297
 401.9	12299
 402.4	12303
 402.9	12319
 403.5	12352
 404.0	12366
 404.5	12367
 405.1	12422
 405.6	12528
 406.1	12567
 406.7	12631
 407.2	12701
 407.7	12831
 408.2	12884
 408.8	12953
 409.3	13038
 409.8	13131
 410.4	13173
 410.9	13235
 411.4	13253
 412.0	13322
 412.5	13370
 413.0	13393
 413.6	13445
 414.1	13471
 414.6	13528
 415.2	13582
 415.7	13582
 416.2	13644
 416.8	13671
 417.3	13690
 417.8	13746
 418.4	13839
 418.9	13837
 419.4	13941
 420.0	13926
 420.5	14001
 421.0	14018
 421.5	14096
 422.1	14119
 422.6	14202
 423.1	14245
 423.7	14275
 424.2	14302
 424.7	14339
 425.3	14315
 425.8	14328
 426.3	14323
 426.9	14373
 427.4	14340
 427.9	14401
 428.5	14404
 429.0	14441
 429.6	14424
 430.1	14513
 430.6	14605
 431.2	14677
 431.7	14795
 432.2	14867
 432.8	14955
 433.3	15120
 433.8	15218
 434.4	15309
 434.9	15435
 435.4	15565
 436.0	15671
 436.5	15754
 437.0	15877
 437.6	15941
 438.1	16031
 438.6	16085
 439.2	16139
 439.7	16149
 440.2	16130
 440.8	16115
 441.3	16103
 441.8	16095
 442.4	16041
 442.9	16015
 443.5	15998
 444.0	15957
 444.5	15945
 445.1	15887
 445.6	15900
 446.1	15917
 446.7	15942
 447.2	15989
 447.7	16029
 448.3	16115
 448.8	16144
 449.3	16232
 449.9	16307
 450.4	16472
 450.9	16622
 451.5	16723
 452.0	16841
 452.6	17002
 453.1	17146
 453.6	17313
 454.2	17411
 454.7	17591
 455.2	17727
 455.8	17857
 456.3	17929
 456.8	18093
 457.4	18133
 457.9	18176
 458.5	18226
 459.0	18217
 459.5	18259
 460.1	18238
 460.6	18212
 461.1	18204
 461.7	18220
 462.2	18167
 462.7	18162
 463.3	18108
 463.8	18119
 464.4	18115
 464.9	18106
 465.4	18132
 466.0	18117
 466.5	18165
 467.0	18160
 467.6	18246
 468.1	18327
 468.7	18335
 469.2	18389
 469.7	18501
 470.3	18571
 470.8	18643
 471.3	18749
 471.9	18826
 472.4	18941
 473.0	19039
 473.5	19137
 474.0	19207
 474.6	19270
 475.1	19362
 475.6	19469
 476.2	19513
 476.7	19552
 477.3	19622
 477.8	19629
 478.3	19619
 478.9	19745
 479.4	19788
 479.9	19819
 480.5	19866
 481.0	19942
 481.6	20031
 482.1	20127
 482.6	20203
 483.2	20284
 483.7	20408
 484.2	20459
 484.8	20467
 485.3	20588
 485.9	20693
 486.4	20723
 486.9	20795
 487.5	20827
 488.0	20895
 488.6	20986
 489.1	21068
 489.6	21129
 490.2	21195
 490.7	21212
 491.2	21263
 491.8	21305
 492.3	21312
 492.9	21377
 493.4	21402
 493.9	21411
 494.5	21406
 495.0	21423
 495.6	21339
 496.1	21311
 496.6	21329
 497.2	21226
 497.7	21179
 498.2	21155
 498.8	21134
 499.3	21085
 499.9	21066
 500.4	20990
 500.9	20987
 501.5	21025
 502.0	21127
 502.6	21135
 503.1	21229
 503.6	21276
 504.2	21339
 504.7	21426
 505.2	21549
 505.8	21671
 506.3	21846
 506.9	21981
 507.4	22115
 507.9	22245
 508.5	22453
 509.0	22643
 509.6	22870
 510.1	22979
 510.6	23158
 511.2	23365
 511.7	23527
 512.2	23617
 512.8	23852
 513.3	23977
 513.9	24100
 514.4	24207
 514.9	24384
 515.5	24349
 516.0	24405
 516.6	24422
 517.1	24445
 517.6	24376
 518.2	24333
 518.7	24225
 519.3	24152
 519.8	24095
 520.3	23991
 520.9	23883
 521.4	23771
 521.9	23687
 522.5	23555
 523.0	23489
 523.6	23425
 524.1	23263
 524.6	23173
 525.2	23122
 525.7	23159
 526.3	23146
 526.8	23185
 527.3	23145
 527.9	23218
 528.4	23219
 528.9	23317
 529.5	23371
 530.0	23446
 530.6	23538
 531.1	23653
 531.6	23709
 532.2	23900
 532.7	24007
 533.3	24180
 533.8	24381
 534.3	24523
 534.9	24699
 535.4	24859
 536.0	25035
 536.5	25266
 537.0	25373
 537.6	25517
 538.1	25698
 538.6	25873
 539.2	25984
 539.7	26110
 540.3	26267
 540.8	26321
 541.3	26379
 541.9	26476
 542.4	26556
 543.0	26594
 543.5	26627
 544.0	26610
 544.6	26635
 545.1	26628
 545.6	26639
 546.2	26610
 546.7	26473
 547.3	26607
 547.8	26492
 548.3	26491
 548.9	26409
 549.4	26346
 550.0	26311
 550.5	26307
 551.0	26267
 551.6	26223
 552.1	26182
 552.6	26141
 553.2	26110
 553.7	26077
 554.3	26077
 554.8	26077
 555.3	25965
 555.9	26003
 556.4	26015
 556.9	26135
 557.5	26163
 558.0	26167
 558.6	26157
 559.1	26267
 559.6	26304
 560.2	26361
 560.7	26407
 561.3	26411
 561.8	26515
 562.3	26649
 562.9	26694
 563.4	26767
 563.9	26806
 564.5	26886
 565.0	26906
 565.6	26973
 566.1	26994
 566.6	26987
 567.2	27003
 567.7	27126
 568.2	27082
 568.8	27056
 569.3	27053
 569.9	27078
 570.4	27088
 570.9	27051
 571.5	27041
 572.0	27069
 572.5	27083
 573.1	27094
 573.6	27113
 574.1	27137
 574.7	27167
 575.2	27185
 575.8	27251
 576.3	27310
 576.8	27345
 577.4	27363
 577.9	27515
 578.4	27526
 579.0	27625
 579.5	27690
 580.1	27722
 580.6	27863
 581.1	27977
 581.7	28035
 582.2	28071
 582.7	28174
 583.3	28267
 583.8	28286
 584.3	28342
 584.9	28393
 585.4	28425
 586.0	28504
 586.5	28585
 587.0	28592
 587.6	28679
 588.1	28695
 588.6	28781
 589.2	28783
 589.7	28819
 590.2	28835
 590.8	28824
 591.3	28842
 591.9	28825
 592.4	28839
 592.9	28747
 593.5	28694
 594.0	28676
 594.5	28577
 595.1	28465
 595.6	28454
 596.1	28293
 596.7	28231
 597.2	28162
 597.7	28080
 598.3	28061
 598.8	27949
 599.3	27897
 599.9	27799
 600.4	27732
 601.0	27629
 601.5	27590
 602.0	27481
 602.6	27459
 603.1	27472
 603.6	27416
 604.2	27469
 604.7	27443
 605.2	27437
 605.8	27444
 606.3	27407
 606.8	27527
 607.4	27581
 607.9	27617
 608.4	27629
 609.0	27690
 609.5	27787
 610.0	27816
 610.6	27929
 611.1	27934
 611.6	28008
 612.2	28078
 612.7	28170
 613.2	28255
 613.8	28390
 614.3	28379
 614.8	28541
 615.4	28577
 615.9	28775
 616.4	29014
 617.0	29012
 617.5	29202
 618.0	29351
 618.6	29466
 619.1	29567
 619.6	29795
 620.2	30033
 620.7	30258
 621.2	30385
 621.8	30561
 622.3	30749
 622.8	30881
 623.4	31005
 623.9	31173
 624.4	31245
 625.0	31281
 625.5	31453
 626.0	31465
 626.6	31533
 627.1	31494
 627.6	31422
 628.2	31440
 628.7	31569
 629.2	31443
 629.8	31420
 630.3	31373
 630.8	31379
 631.4	31239
 631.9	31258
 632.4	30979
 632.9	30969
 633.5	30742
 634.0	30700
 634.5	30619
 635.1	30451
 635.6	30326
 636.1	30250
 636.7	30132
 637.2	29987
 637.7	29942
 638.3	29806
 638.8	29655
 639.3	29595
 639.8	29527
 640.4	29462
 640.9	29461
 641.4	29261
 642.0	29207
 642.5	29186
 643.0	29111
 643.6	29109
 644.1	29041
 644.6	29049
 645.1	29033
 645.7	29084
 646.2	29021
 646.7	29035
 647.3	29023
 647.8	29066
 648.3	29046
 648.9	29125
 649.4	29141
 649.9	29175
 650.4	29213
 651.0	29331
 651.5	29348
 652.0	29456
 652.6	29451
 653.1	29603
 653.6	29618
 654.1	29677
 654.7	29779
 655.2	29955
 655.7	29955
 656.3	29999
 656.8	30105
 657.3	30216
 657.8	30249
 658.4	30339
 658.9	30378
 659.4	30549
 659.9	30534
 660.5	30582
 661.0	30658
 661.5	30716
 662.1	30741
 662.6	30763
 663.1	30778
 663.6	30856
 664.2	30822
 664.7	30843
 665.2	30849
 665.7	30842
 666.3	30813
 666.8	30794
 667.3	30815
 667.8	30736
 668.4	30797
 668.9	30713
 669.4	30658
 669.9	30649
 670.5	30605
 671.0	30573
 671.5	30493
 672.0	30447
 672.6	30443
 673.1	30449
 673.6	30332
 674.1	30269
 674.7	30279
 675.2	30239
 675.7	30157
 676.2	30097
 676.8	30120
 677.3	30026
 677.8	29947
 678.3	30001
 678.9	29870
 679.4	29826
 679.9	29786
 680.4	29801
 681.0	29727
 681.5	29686
 682.0	29647
 682.5	29671
 683.1	29519
 683.6	29546
 684.1	29447
 684.6	29492
 685.1	29425
 685.7	29383
 686.2	29363
 686.7	29375
 687.2	29351
 687.8	29328
 688.3	29275
 688.8	29269
 689.3	29252
 689.8	29264
 690.4	29233
 690.9	29264
 691.4	29255
 691.9	29231
 692.4	29231
 693.0	29304
 693.5	29307
 694.0	29213
 694.5	29237
 695.1	29262
 695.6	29199
 696.1	29263
 696.6	29293
 697.1	29254
 697.7	29301
 698.2	29248
 698.7	29240
 699.2	29220
 699.7	29221
 700.3	29207
 700.8	29180
 701.3	29215
 701.8	29097
 702.3	29041
 702.8	29146
 703.4	29009
 703.9	28977
 704.4	28917
 704.9	28875
 705.4	28807
 706.0	28807
 706.5	28747
 707.0	28653
 707.5	28597
 708.0	28542
 708.5	28453
 709.1	28423
 709.6	28343
 710.1	28260
 710.6	28189
 711.1	28145
 711.7	28050
 712.2	27991
 712.7	27905
 713.2	27814
 713.7	27691
 714.2	27593
 714.8	27577
 715.3	27420
 715.8	27385
 716.3	27297
 716.8	27165
 717.3	27097
 717.8	27110
 718.4	27063
 718.9	27014
 719.4	27018
 719.9	26954
 720.4	27007
 720.9	26996
 721.4	26998
 722.0	27062
 722.5	27088
 723.0	27125
 723.5	27137
 724.0	27172
 724.5	27211
 725.0	27239
 725.6	27227
 726.1	27353
 726.6	27437
 727.1	27452
 727.6	27489
 728.1	27513
 728.6	27486
 729.1	27531
 729.7	27522
 730.2	27563
 730.7	27627
 731.2	27638
 731.7	27633
 732.2	27709
 732.7	27731
 733.2	27743
 733.8	27754
 734.3	27795
 734.8	27790
 735.3	27877
 735.8	27951
 736.3	28005
 736.8	28062
 737.3	28127
 737.8	28129
 738.4	28204
 738.9	28207
 739.4	28291
 739.9	28253
 740.4	28336
 740.9	28349
 741.4	28378
 741.9	28366
 742.4	28392
 742.9	28389
 743.4	28421
 744.0	28366
 744.5	28353
 745.0	28315
 745.5	28265
 746.0	28244
 746.5	28322
 747.0	28274
 747.5	28242
 748.0	28226
 748.5	28178
 749.0	28167
 749.5	28198
 750.0	28063
 750.5	28065
 751.1	28063
 751.6	27999
 752.1	27908
 752.6	27839
 753.1	27855
 753.6	27785
 754.1	27699
 754.6	27714
 755.1	27651
 755.6	27602
 756.1	27508
 756.6	27514
 757.1	27451
 757.6	27369
 758.1	27281
 758.6	27234
 759.1	27139
 759.6	27085
 760.1	26945
 760.7	26844
 761.2	26844
 761.7	26783
 762.2	26728
 762.7	26685
 763.2	26591
 763.7	26567
 764.2	26479
 764.7	26426
 765.2	26359
 765.7	26277
 766.2	26193
 766.7	26156
 767.2	26069
 767.7	26005
 768.2	25921
 768.7	25815
 769.2	25755
 769.7	25713
 770.2	25649
 770.7	25638
 771.2	25591
 771.7	25553
 772.2	25539
 772.7	25529
 773.2	25469
 773.7	25413
 774.2	25366
 774.7	25370
 775.2	25329
 775.7	25292
 776.2	25263
 776.7	25266
 777.2	25225
 777.7	25221
 778.2	25189
 778.7	25201
 779.2	25176
 779.7	25193
 780.2	25119
 780.7	25159
 781.2	25141
 781.7	25159
 782.2	25135
 782.6	25154
 783.1	25127
 783.6	25132
 784.1	25101
 784.6	25103
 785.1	25128
 785.6	25122
 786.1	25123
 786.6	25163
 787.1	25114
 787.6	25107
 788.1	25095
 788.6	25101
 789.1	25091
 789.6	25084
 790.1	25073
 790.6	25057
 791.1	24974
 791.6	24947
 792.0	24931
 792.5	24947
 793.0	24903
 793.5	24855
 794.0	24751
 794.5	24752
 795.0	24737
 795.5	24703
 796.0	24655
 796.5	24584
 797.0	24534
 797.5	24499
 798.0	24369
 798.4	24330
 798.9	24256
 799.4	24190
 799.9	24110
 800.4	23996
 800.9	23966
 801.4	23905
 801.9	23779
 802.4	23688
 802.9	23587
 803.3	23467
 803.8	23403
 804.3	23321
 804.8	23262
 805.3	23151
 805.8	23041
 806.3	22959
 806.8	22863
 807.2	22750
 807.7	22650
 808.2	22596
 808.7	22480
 809.2	22384
 809.7	22251
 810.2	22216
 810.7	22100
 811.1	22009
 811.6	21936
 812.1	21846
 812.6	21732
 813.1	21667
 813.6	21617
 814.1	21541
 814.5	21463
 815.0	21391
 815.5	21287
 816.0	21206
 816.5	21179
 817.0	21091
 817.4	21027
 817.9	20995
 818.4	20896
 818.9	20871
 819.4	20782
 819.9	20728
 820.3	20690
 820.8	20628
 821.3	20574
 821.8	20532
 822.3	20437
 822.7	20374
 823.2	20396
 823.7	20346
 824.2	20314
 824.7	20253
 825.2	20210
 825.6	20174
 826.1	20149
 826.6	20111
 827.1	20091
 827.6	20070
 828.0	20022
 828.5	19977
 829.0	19955
 829.5	19915
 829.9	19901
 830.4	19881
 830.9	19841
 831.4	19844
 831.9	19807
 832.3	19827
 832.8	19785
 833.3	19762
 833.8	19794
 834.2	19765
 834.7	19667
 835.2	19710
 835.7	19697
 836.1	19665
 836.6	19633
 837.1	19625
 837.6	19625
 838.0	19622
 838.5	19622
 839.0	19612
 839.5	19599
 839.9	19557
 840.4	19547
 840.9	19527
 841.4	19537
 841.8	19533
 842.3	19524
 842.8	19523
 843.3	19504
 843.7	19428
 844.2	19386
 844.7	19425
 845.1	19403
 845.6	19349
 846.1	19345
 846.6	19365
 847.0	19310
 847.5	19306
 848.0	19272
 848.4	19286
 848.9	19247
 849.4	19181
 849.8	19146
 850.3	19135
 850.8	19145
 851.3	19095
 851.7	19065
 852.2	19034
 852.7	19012
 853.1	18957
 853.6	18898
 854.1	18894
 854.5	18839
 855.0	18789
 855.5	18764
 855.9	18758
 856.4	18711
 856.9	18630
 857.3	18615
 857.8	18578
 858.3	18507
 858.7	18356
 859.2	18366
 859.7	18402
 860.1	18421
 860.6	18363
 861.1	18274
 861.5	18236
 862.0	18166
 862.4	18079
 862.9	18012
 863.4	18010
 863.8	17959
 864.3	17883
 864.8	17765
 865.2	17751
 865.7	17726
 866.1	17666
 866.6	17582
 867.1	17597
 867.5	17551
 868.0	17489
 868.5	17420
 868.9	17390
 869.4	17418
 869.8	17372
 870.3	17338
 870.8	17357
 871.2	17339
 871.7	17297
 872.1	17243
 872.6	17275
 873.0	17245
 873.5	17259
 874.0	17225
 874.4	17159
 874.9	17179
 875.3	17142
 875.8	17107
 876.2	17020
 876.7	16931
 877.2	16709
 877.6	16367
 878.1	15844
