#xlabel Wavelength (nm)
#ylabel Spectrometer Array Counts
#title Exposure time is 10000 ms
## lambda	counts
 349.8	16786
 350.3	17033
 350.8	17270
 351.3	17449
 351.9	17539
 352.4	17657
 352.9	17739
 353.4	17709
 354.0	17718
 354.5	17761
 355.0	17780
 355.5	17791
 356.0	17759
 356.6	17729
 357.1	17773
 357.6	17762
 358.1	17787
 358.7	17730
 359.2	17748
 359.7	17765
 360.2	17799
 360.8	17765
 361.3	17863
 361.8	17809
 362.3	17840
 362.9	17797
 363.4	17877
 363.9	17876
 364.4	17901
 364.9	17821
 365.5	17892
 366.0	17878
 366.5	17836
 367.0	17882
 367.6	17904
 368.1	17904
 368.6	17851
 369.1	17902
 369.7	17951
 370.2	17883
 370.7	17881
 371.2	17926
 371.8	17983
 372.3	17907
 372.8	17978
 373.3	17996
 373.9	17944
 374.4	17962
 374.9	18010
 375.5	17914
 376.0	18030
 376.5	18002
 377.0	18029
 377.6	17979
 378.1	18066
 378.6	18009
 379.1	18009
 379.7	17998
 380.2	18079
 380.7	18085
 381.2	18050
 381.8	18048
 382.3	18087
 382.8	18074
 383.4	18126
 383.9	18089
 384.4	18234
 384.9	18150
 385.5	18168
 386.0	18173
 386.5	18254
 387.1	18194
 387.6	18212
 388.1	18222
 388.6	18246
 389.2	18235
 389.7	18271
 390.2	18252
 390.8	18345
 391.3	18323
 391.8	18330
 392.3	18327
 392.9	18337
 393.4	18333
 393.9	18418
 394.5	18427
 395.0	18383
 395.5	18415
 396.0	18424
 396.6	18402
 397.1	18501
 397.6	18501
 398.2	18505
 398.7	18512
 399.2	18602
 399.8	18487
 400.3	18549
 400.8	18596
 401.3	18577
 401.9	18595
 402.4	18618
 402.9	18614
 403.5	18651
 404.0	18641
 404.5	18603
 405.1	18627
 405.6	18725
 406.1	18705
 406.7	18728
 407.2	18745
 407.7	18836
 408.2	18839
 408.8	18850
 409.3	18895
 409.8	18950
 410.4	18921
 410.9	18941
 411.4	18900
 412.0	18969
 412.5	19025
 413.0	18991
 413.6	19038
 414.1	19020
 414.6	19057
 415.2	19107
 415.7	19055
 416.2	19115
 416.8	19105
 417.3	19103
 417.8	19131
 418.4	19228
 418.9	19177
 419.4	19313
 420.0	19213
 420.5	19284
 421.0	19245
 421.5	19330
 422.1	19315
 422.6	19377
 423.1	19405
 423.7	19386
 424.2	19378
 424.7	19426
 425.3	19406
 425.8	19441
 426.3	19431
 426.9	19495
 427.4	19445
 427.9	19561
 428.5	19516
 429.0	19565
 429.6	19541
 430.1	19634
 430.6	19650
 431.2	19615
 431.7	19723
 432.2	19717
 432.8	19716
 433.3	19844
 433.8	19869
 434.4	19859
 434.9	19902
 435.4	19973
 436.0	19967
 436.5	19986
 437.0	20074
 437.6	20070
 438.1	20128
 438.6	20136
 439.2	20175
 439.7	20171
 440.2	20123
 440.8	20159
 441.3	20164
 441.8	20172
 442.4	20142
 442.9	20170
 443.5	20210
 444.0	20203
 444.5	20237
 445.1	20159
 445.6	20205
 446.1	20245
 446.7	20275
 447.2	20299
 447.7	20307
 448.3	20396
 448.8	20384
 449.3	20444
 449.9	20428
 450.4	20551
 450.9	20625
 451.5	20650
 452.0	20660
 452.6	20715
 453.1	20807
 453.6	20854
 454.2	20781
 454.7	20885
 455.2	20929
 455.8	21006
 456.3	20970
 456.8	21112
 457.4	21059
 457.9	21087
 458.5	21142
 459.0	21113
 459.5	21159
 460.1	21122
 460.6	21166
 461.1	21152
 461.7	21206
 462.2	21163
 462.7	21202
 463.3	21145
 463.8	21215
 464.4	21279
 464.9	21230
 465.4	21307
 466.0	21227
 466.5	21313
 467.0	21263
 467.6	21344
 468.1	21442
 468.7	21403
 469.2	21362
 469.7	21482
 470.3	21483
 470.8	21546
 471.3	21548
 471.9	21545
 472.4	21611
 473.0	21678
 473.5	21718
 474.0	21739
 474.6	21764
 475.1	21784
 475.6	21875
 476.2	21908
 476.7	21905
 477.3	21979
 477.8	21944
 478.3	21892
 478.9	22103
 479.4	22019
 479.9	22053
 480.5	22063
 481.0	22116
 481.6	22161
 482.1	22236
 482.6	22250
 483.2	22289
 483.7	22413
 484.2	22381
 484.8	22259
 485.3	22371
 485.9	22460
 486.4	22456
 486.9	22497
 487.5	22477
 488.0	22507
 488.6	22587
 489.1	22620
 489.6	22681
 490.2	22695
 490.7	22678
 491.2	22655
 491.8	22723
 492.3	22685
 492.9	22749
 493.4	22759
 493.9	22772
 494.5	22783
 495.0	22841
 495.6	22758
 496.1	22773
 496.6	22821
 497.2	22746
 497.7	22707
 498.2	22789
 498.8	22806
 499.3	22727
 499.9	22782
 500.4	22789
 500.9	22784
 501.5	22794
 502.0	22879
 502.6	22879
 503.1	22992
 503.6	22980
 504.2	22973
 504.7	23025
 505.2	23123
 505.8	23158
 506.3	23275
 506.9	23340
 507.4	23356
 507.9	23395
 508.5	23478
 509.0	23570
 509.6	23685
 510.1	23704
 510.6	23787
 511.2	23859
 511.7	23895
 512.2	24001
 512.8	24069
 513.3	24069
 513.9	24087
 514.4	24174
 514.9	24269
 515.5	24183
 516.0	24260
 516.6	24234
 517.1	24277
 517.6	24247
 518.2	24214
 518.7	24144
 519.3	24173
 519.8	24184
 520.3	24154
 520.9	24090
 521.4	24070
 521.9	24101
 522.5	23997
 523.0	23994
 523.6	24013
 524.1	23863
 524.6	23898
 525.2	23921
 525.7	23960
 526.3	23898
 526.8	23993
 527.3	23959
 527.9	23997
 528.4	23998
 528.9	24080
 529.5	24116
 530.0	24139
 530.6	24222
 531.1	24272
 531.6	24231
 532.2	24386
 532.7	24398
 533.3	24487
 533.8	24649
 534.3	24741
 534.9	24783
 535.4	24797
 536.0	24914
 536.5	25005
 537.0	25025
 537.6	25098
 538.1	25193
 538.6	25249
 539.2	25241
 539.7	25301
 540.3	25417
 540.8	25419
 541.3	25403
 541.9	25455
 542.4	25476
 543.0	25552
 543.5	25524
 544.0	25505
 544.6	25542
 545.1	25561
 545.6	25581
 546.2	25566
 546.7	25472
 547.3	25529
 547.8	25495
 548.3	25539
 548.9	25443
 549.4	25438
 550.0	25403
 550.5	25448
 551.0	25485
 551.6	25424
 552.1	25430
 552.6	25430
 553.2	25387
 553.7	25370
 554.3	25399
 554.8	25473
 555.3	25339
 555.9	25402
 556.4	25385
 556.9	25493
 557.5	25527
 558.0	25498
 558.6	25492
 559.1	25569
 559.6	25575
 560.2	25602
 560.7	25619
 561.3	25607
 561.8	25603
 562.3	25738
 562.9	25742
 563.4	25795
 563.9	25802
 564.5	25828
 565.0	25827
 565.6	25857
 566.1	25870
 566.6	25875
 567.2	25866
 567.7	25964
 568.2	25902
 568.8	25908
 569.3	25897
 569.9	25961
 570.4	25941
 570.9	25929
 571.5	25922
 572.0	25924
 572.5	25986
 573.1	25939
 573.6	26004
 574.1	25999
 574.7	26015
 575.2	25999
 575.8	26060
 576.3	26137
 576.8	26124
 577.4	26153
 577.9	26188
 578.4	26178
 579.0	26209
 579.5	26335
 580.1	26280
 580.6	26327
 581.1	26423
 581.7	26470
 582.2	26440
 582.7	26498
 583.3	26556
 583.8	26556
 584.3	26524
 584.9	26599
 585.4	26618
 586.0	26620
 586.5	26666
 587.0	26652
 587.6	26737
 588.1	26695
 588.6	26775
 589.2	26726
 589.7	26750
 590.2	26739
 590.8	26729
 591.3	26747
 591.9	26689
 592.4	26728
 592.9	26652
 593.5	26629
 594.0	26598
 594.5	26591
 595.1	26540
 595.6	26492
 596.1	26521
 596.7	26456
 597.2	26470
 597.7	26386
 598.3	26376
 598.8	26324
 599.3	26305
 599.9	26245
 600.4	26228
 601.0	26206
 601.5	26175
 602.0	26151
 602.6	26106
 603.1	26103
 603.6	26103
 604.2	26190
 604.7	26113
 605.2	26171
 605.8	26098
 606.3	26128
 606.8	26207
 607.4	26206
 607.9	26250
 608.4	26209
 609.0	26267
 609.5	26322
 610.0	26314
 610.6	26420
 611.1	26371
 611.6	26428
 612.2	26449
 612.7	26530
 613.2	26543
 613.8	26517
 614.3	26580
 614.8	26649
 615.4	26632
 615.9	26746
 616.4	26840
 617.0	26825
 617.5	26945
 618.0	27003
 618.6	26990
 619.1	27063
 619.6	27171
 620.2	27231
 620.7	27344
 621.2	27358
 621.8	27433
 622.3	27502
 622.8	27515
 623.4	27575
 623.9	27659
 624.4	27664
 625.0	27674
 625.5	27683
 626.0	27702
 626.6	27755
 627.1	27732
 627.6	27689
 628.2	27649
 628.7	27683
 629.2	27648
 629.8	27660
 630.3	27636
 630.8	27600
 631.4	27551
 631.9	27538
 632.4	27400
 632.9	27375
 633.5	27331
 634.0	27255
 634.5	27278
 635.1	27184
 635.6	27135
 636.1	27076
 636.7	27069
 637.2	27025
 637.7	26895
 638.3	26960
 638.8	26915
 639.3	26897
 639.8	26809
 640.4	26803
 640.9	26795
 641.4	26689
 642.0	26652
 642.5	26648
 643.0	26608
 643.6	26677
 644.1	26625
 644.6	26634
 645.1	26641
 645.7	26631
 646.2	26572
 646.7	26599
 647.3	26621
 647.8	26635
 648.3	26610
 648.9	26655
 649.4	26583
 649.9	26660
 650.4	26671
 651.0	26732
 651.5	26755
 652.0	26816
 652.6	26780
 653.1	26875
 653.6	26811
 654.1	26891
 654.7	26878
 655.2	26965
 655.7	27017
 656.3	27049
 656.8	27017
 657.3	27085
 657.8	27063
 658.4	27073
 658.9	27103
 659.4	27189
 659.9	27193
 660.5	27173
 661.0	27225
 661.5	27274
 662.1	27250
 662.6	27253
 663.1	27230
 663.6	27306
 664.2	27259
 664.7	27230
 665.2	27164
 665.7	27272
 666.3	27229
 666.8	27227
 667.3	27215
 667.8	27173
 668.4	27191
 668.9	27186
 669.4	27146
 669.9	27163
 670.5	27086
 671.0	27094
 671.5	27031
 672.0	27063
 672.6	27048
 673.1	27070
 673.6	26965
 674.1	26977
 674.7	26954
 675.2	26983
 675.7	26841
 676.2	26815
 676.8	26869
 677.3	26857
 677.8	26774
 678.3	26862
 678.9	26783
 679.4	26710
 679.9	26757
 680.4	26739
 681.0	26695
 681.5	26710
 682.0	26660
 682.5	26680
 683.1	26579
 683.6	26600
 684.1	26542
 684.6	26620
 685.1	26554
 685.7	26558
 686.2	26525
 686.7	26486
 687.2	26465
 687.8	26516
 688.3	26452
 688.8	26465
 689.3	26400
 689.8	26426
 690.4	26414
 690.9	26418
 691.4	26425
 691.9	26431
 692.4	26399
 693.0	26462
 693.5	26420
 694.0	26402
 694.5	26401
 695.1	26366
 695.6	26325
 696.1	26390
 696.6	26372
 697.1	26383
 697.7	26409
 698.2	26330
 698.7	26348
 699.2	26309
 699.7	26314
 700.3	26272
 700.8	26239
 701.3	26330
 701.8	26279
 702.3	26218
 702.8	26209
 703.4	26183
 703.9	26173
 704.4	26142
 704.9	26098
 705.4	26090
 706.0	26147
 706.5	26112
 707.0	26021
 707.5	25991
 708.0	25999
 708.5	25936
 709.1	25983
 709.6	25933
 710.1	25876
 710.6	25843
 711.1	25819
 711.7	25822
 712.2	25798
 712.7	25795
 713.2	25756
 713.7	25748
 714.2	25690
 714.8	25767
 715.3	25704
 715.8	25695
 716.3	25691
 716.8	25611
 717.3	25591
 717.8	25681
 718.4	25688
 718.9	25616
 719.4	25691
 719.9	25599
 720.4	25645
 720.9	25647
 721.4	25640
 722.0	25662
 722.5	25643
 723.0	25634
 723.5	25640
 724.0	25607
 724.5	25597
 725.0	25626
 725.6	25557
 726.1	25607
 726.6	25707
 727.1	25651
 727.6	25682
 728.1	25705
 728.6	25652
 729.1	25650
 729.7	25630
 730.2	25652
 730.7	25675
 731.2	25702
 731.7	25683
 732.2	25691
 732.7	25657
 733.2	25693
 733.8	25668
 734.3	25689
 734.8	25659
 735.3	25690
 735.8	25671
 736.3	25656
 736.8	25693
 737.3	25738
 737.8	25686
 738.4	25686
 738.9	25645
 739.4	25723
 739.9	25699
 740.4	25715
 740.9	25689
 741.4	25682
 741.9	25673
 742.4	25689
 742.9	25663
 743.4	25732
 744.0	25636
 744.5	25617
 745.0	25622
 745.5	25681
 746.0	25639
 746.5	25643
 747.0	25571
 747.5	25542
 748.0	25500
 748.5	25513
 749.0	25513
 749.5	25574
 750.0	25406
 750.5	25437
 751.1	25423
 751.6	25410
 752.1	25373
 752.6	25331
 753.1	25346
 753.6	25271
 754.1	25221
 754.6	25239
 755.1	25178
 755.6	25159
 756.1	25058
 756.6	25128
 757.1	25076
 757.6	25040
 758.1	24980
 758.6	24963
 759.1	24874
 759.6	24889
 760.1	24815
 760.7	24754
 761.2	24807
 761.7	24733
 762.2	24700
 762.7	24713
 763.2	24570
 763.7	24630
 764.2	24537
 764.7	24523
 765.2	24524
 765.7	24463
 766.2	24404
 766.7	24416
 767.2	24344
 767.7	24323
 768.2	24277
 768.7	24211
 769.2	24181
 769.7	24208
 770.2	24156
 770.7	24134
 771.2	24098
 771.7	24054
 772.2	24051
 772.7	24079
 773.2	24038
 773.7	23974
 774.2	23907
 774.7	23938
 775.2	23905
 775.7	23880
 776.2	23854
 776.7	23870
 777.2	23786
 777.7	23843
 778.2	23814
 778.7	23837
 779.2	23833
 779.7	23848
 780.2	23689
 780.7	23741
 781.2	23740
 781.7	23790
 782.2	23710
 782.6	23765
 783.1	23762
 783.6	23724
 784.1	23675
 784.6	23651
 785.1	23663
 785.6	23647
 786.1	23670
 786.6	23677
 787.1	23612
 787.6	23606
 788.1	23587
 788.6	23565
 789.1	23549
 789.6	23571
 790.1	23573
 790.6	23557
 791.1	23454
 791.6	23439
 792.0	23443
 792.5	23462
 793.0	23434
 793.5	23411
 794.0	23325
 794.5	23397
 795.0	23362
 795.5	23323
 796.0	23307
 796.5	23246
 797.0	23248
 797.5	23266
 798.0	23103
 798.4	23122
 798.9	23089
 799.4	23078
 799.9	23057
 800.4	22908
 800.9	22980
 801.4	23005
 801.9	22943
 802.4	22851
 802.9	22884
 803.3	22849
 803.8	22792
 804.3	22721
 804.8	22748
 805.3	22680
 805.8	22638
 806.3	22608
 806.8	22569
 807.2	22532
 807.7	22482
 808.2	22479
 808.7	22386
 809.2	22372
 809.7	22281
 810.2	22320
 810.7	22239
 811.1	22227
 811.6	22204
 812.1	22136
 812.6	22078
 813.1	22101
 813.6	22096
 814.1	22059
 814.5	21996
 815.0	22000
 815.5	21935
 816.0	21878
 816.5	21916
 817.0	21852
 817.4	21813
 817.9	21837
 818.4	21749
 818.9	21814
 819.4	21751
 819.9	21718
 820.3	21679
 820.8	21658
 821.3	21643
 821.8	21628
 822.3	21569
 822.7	21542
 823.2	21582
 823.7	21532
 824.2	21519
 824.7	21491
 825.2	21491
 825.6	21455
 826.1	21440
 826.6	21481
 827.1	21453
 827.6	21436
 828.0	21370
 828.5	21334
 829.0	21361
 829.5	21298
 829.9	21291
 830.4	21335
 830.9	21308
 831.4	21322
 831.9	21281
 832.3	21342
 832.8	21279
 833.3	21274
 833.8	21338
 834.2	21319
 834.7	21165
 835.2	21252
 835.7	21249
 836.1	21232
 836.6	21211
 837.1	21206
 837.6	21208
 838.0	21230
 838.5	21249
 839.0	21243
 839.5	21228
 839.9	21145
 840.4	21146
 840.9	21115
 841.4	21143
 841.8	21154
 842.3	21166
 842.8	21176
 843.3	21165
 843.7	21062
 844.2	21046
 844.7	21118
 845.1	21090
 845.6	21009
 846.1	21025
 846.6	21048
 847.0	20952
 847.5	20987
 848.0	20968
 848.4	20993
 848.9	20951
 849.4	20924
 849.8	20938
 850.3	20926
 850.8	20964
 851.3	20923
 851.7	20908
 852.2	20904
 852.7	20890
 853.1	20858
 853.6	20801
 854.1	20836
 854.5	20796
 855.0	20775
 855.5	20759
 855.9	20809
 856.4	20787
 856.9	20700
 857.3	20742
 857.8	20703
 858.3	20727
 858.7	20668
 859.2	20681
 859.7	20682
 860.1	20722
 860.6	20698
 861.1	20629
 861.5	20660
 862.0	20657
 862.4	20626
 862.9	20581
 863.4	20619
 863.8	20609
 864.3	20598
 864.8	20509
 865.2	20549
 865.7	20567
 866.1	20570
 866.6	20485
 867.1	20554
 867.5	20528
 868.0	20492
 868.5	20442
 868.9	20433
 869.4	20522
 869.8	20471
 870.3	20410
 870.8	20472
 871.2	20420
 871.7	20406
 872.1	20345
 872.6	20387
 873.0	20355
 873.5	20417
 874.0	20401
 874.4	20282
 874.9	20306
 875.3	20252
 875.8	20158
 876.2	19953
 876.7	19810
 877.2	19487
 877.6	19083
 878.1	18672
