#xlabel Wavelength (nm)
#ylabel Spectrometer Array Counts
#title Exposure time is 10000 ms
## lambda	counts
 349.8	16853
 350.3	17111
 350.8	17358
 351.3	17536
 351.9	17644
 352.4	17753
 352.9	17829
 353.4	17795
 354.0	17800
 354.5	17841
 355.0	17848
 355.5	17856
 356.0	17821
 356.6	17790
 357.1	17834
 357.6	17818
 358.1	17847
 358.7	17793
 359.2	17808
 359.7	17826
 360.2	17855
 360.8	17827
 361.3	17920
 361.8	17871
 362.3	17898
 362.9	17861
 363.4	17937
 363.9	17934
 364.4	17961
 364.9	17879
 365.5	17950
 366.0	17934
 366.5	17895
 367.0	17938
 367.6	17969
 368.1	17963
 368.6	17903
 369.1	17964
 369.7	18012
 370.2	17936
 370.7	17939
 371.2	17980
 371.8	18036
 372.3	17963
 372.8	18037
 373.3	18055
 373.9	18003
 374.4	18021
 374.9	18065
 375.5	17968
 376.0	18093
 376.5	18065
 377.0	18091
 377.6	18037
 378.1	18121
 378.6	18066
 379.1	18067
 379.7	18058
 380.2	18140
 380.7	18145
 381.2	18105
 381.8	18101
 382.3	18140
 382.8	18133
 383.4	18189
 383.9	18145
 384.4	18291
 384.9	18209
 385.5	18229
 386.0	18231
 386.5	18310
 387.1	18251
 387.6	18271
 388.1	18279
 388.6	18302
 389.2	18293
 389.7	18323
 390.2	18311
 390.8	18399
 391.3	18379
 391.8	18392
 392.3	18385
 392.9	18397
 393.4	18395
 393.9	18475
 394.5	18487
 395.0	18447
 395.5	18474
 396.0	18481
 396.6	18459
 397.1	18559
 397.6	18557
 398.2	18564
 398.7	18562
 399.2	18660
 399.8	18543
 400.3	18601
 400.8	18654
 401.3	18632
 401.9	18651
 402.4	18676
 402.9	18670
 403.5	18707
 404.0	18700
 404.5	18664
 405.1	18682
 405.6	18780
 406.1	18761
 406.7	18786
 407.2	18801
 407.7	18891
 408.2	18899
 408.8	18909
 409.3	18954
 409.8	19005
 410.4	18984
 410.9	18998
 411.4	18961
 412.0	19028
 412.5	19086
 413.0	19051
 413.6	19096
 414.1	19070
 414.6	19113
 415.2	19159
 415.7	19110
 416.2	19167
 416.8	19163
 417.3	19163
 417.8	19192
 418.4	19286
 418.9	19239
 419.4	19366
 420.0	19271
 420.5	19343
 421.0	19296
 421.5	19387
 422.1	19376
 422.6	19431
 423.1	19465
 423.7	19445
 424.2	19439
 424.7	19487
 425.3	19464
 425.8	19494
 426.3	19484
 426.9	19556
 427.4	19502
 427.9	19617
 428.5	19577
 429.0	19625
 429.6	19600
 430.1	19689
 430.6	19703
 431.2	19667
 431.7	19782
 432.2	19778
 432.8	19778
 433.3	19901
 433.8	19932
 434.4	19921
 434.9	19960
 435.4	20031
 436.0	20025
 436.5	20043
 437.0	20132
 437.6	20122
 438.1	20179
 438.6	20195
 439.2	20236
 439.7	20230
 440.2	20178
 440.8	20218
 441.3	20222
 441.8	20225
 442.4	20198
 442.9	20227
 443.5	20265
 444.0	20257
 444.5	20287
 445.1	20219
 445.6	20261
 446.1	20299
 446.7	20331
 447.2	20352
 447.7	20365
 448.3	20454
 448.8	20437
 449.3	20500
 449.9	20481
 450.4	20607
 450.9	20675
 451.5	20710
 452.0	20716
 452.6	20774
 453.1	20866
 453.6	20906
 454.2	20839
 454.7	20941
 455.2	20987
 455.8	21061
 456.3	21030
 456.8	21166
 457.4	21119
 457.9	21140
 458.5	21207
 459.0	21171
 459.5	21216
 460.1	21173
 460.6	21223
 461.1	21211
 461.7	21256
 462.2	21215
 462.7	21253
 463.3	21192
 463.8	21269
 464.4	21335
 464.9	21288
 465.4	21363
 466.0	21283
 466.5	21365
 467.0	21319
 467.6	21395
 468.1	21500
 468.7	21457
 469.2	21414
 469.7	21535
 470.3	21534
 470.8	21597
 471.3	21598
 471.9	21595
 472.4	21668
 473.0	21735
 473.5	21776
 474.0	21798
 474.6	21823
 475.1	21839
 475.6	21929
 476.2	21958
 476.7	21955
 477.3	22031
 477.8	21996
 478.3	21946
 478.9	22157
 479.4	22076
 479.9	22103
 480.5	22117
 481.0	22169
 481.6	22215
 482.1	22292
 482.6	22301
 483.2	22335
 483.7	22466
 484.2	22432
 484.8	22313
 485.3	22419
 485.9	22514
 486.4	22513
 486.9	22547
 487.5	22538
 488.0	22560
 488.6	22641
 489.1	22675
 489.6	22737
 490.2	22745
 490.7	22731
 491.2	22707
 491.8	22775
 492.3	22737
 492.9	22803
 493.4	22810
 493.9	22827
 494.5	22836
 495.0	22892
 495.6	22814
 496.1	22827
 496.6	22874
 497.2	22798
 497.7	22763
 498.2	22844
 498.8	22854
 499.3	22778
 499.9	22836
 500.4	22838
 500.9	22831
 501.5	22848
 502.0	22935
 502.6	22932
 503.1	23042
 503.6	23036
 504.2	23033
 504.7	23074
 505.2	23170
 505.8	23200
 506.3	23331
 506.9	23391
 507.4	23417
 507.9	23451
 508.5	23528
 509.0	23620
 509.6	23737
 510.1	23758
 510.6	23846
 511.2	23908
 511.7	23945
 512.2	24053
 512.8	24119
 513.3	24127
 513.9	24141
 514.4	24226
 514.9	24321
 515.5	24235
 516.0	24315
 516.6	24287
 517.1	24333
 517.6	24298
 518.2	24267
 518.7	24196
 519.3	24225
 519.8	24239
 520.3	24204
 520.9	24143
 521.4	24123
 521.9	24151
 522.5	24049
 523.0	24048
 523.6	24069
 524.1	23913
 524.6	23951
 525.2	23967
 525.7	24011
 526.3	23947
 526.8	24046
 527.3	24005
 527.9	24051
 528.4	24050
 528.9	24129
 529.5	24171
 530.0	24193
 530.6	24266
 531.1	24325
 531.6	24280
 532.2	24436
 532.7	24448
 533.3	24541
 533.8	24697
 534.3	24790
 534.9	24838
 535.4	24847
 536.0	24967
 536.5	25055
 537.0	25077
 537.6	25150
 538.1	25249
 538.6	25305
 539.2	25298
 539.7	25353
 540.3	25475
 540.8	25469
 541.3	25454
 541.9	25506
 542.4	25533
 543.0	25609
 543.5	25576
 544.0	25559
 544.6	25590
 545.1	25609
 545.6	25635
 546.2	25620
 546.7	25519
 547.3	25585
 547.8	25552
 548.3	25586
 548.9	25494
 549.4	25482
 550.0	25451
 550.5	25498
 551.0	25528
 551.6	25474
 552.1	25485
 552.6	25486
 553.2	25441
 553.7	25417
 554.3	25446
 554.8	25516
 555.3	25393
 555.9	25449
 556.4	25431
 556.9	25544
 557.5	25577
 558.0	25551
 558.6	25543
 559.1	25621
 559.6	25623
 560.2	25655
 560.7	25671
 561.3	25663
 561.8	25662
 562.3	25797
 562.9	25798
 563.4	25850
 563.9	25862
 564.5	25882
 565.0	25881
 565.6	25912
 566.1	25915
 566.6	25927
 567.2	25923
 567.7	26018
 568.2	25957
 568.8	25964
 569.3	25946
 569.9	26013
 570.4	25996
 570.9	25980
 571.5	25971
 572.0	25979
 572.5	26039
 573.1	25994
 573.6	26054
 574.1	26049
 574.7	26067
 575.2	26050
 575.8	26111
 576.3	26195
 576.8	26178
 577.4	26209
 577.9	26243
 578.4	26234
 579.0	26267
 579.5	26391
 580.1	26337
 580.6	26381
 581.1	26475
 581.7	26525
 582.2	26489
 582.7	26555
 583.3	26611
 583.8	26609
 584.3	26581
 584.9	26647
 585.4	26677
 586.0	26675
 586.5	26719
 587.0	26707
 587.6	26794
 588.1	26752
 588.6	26826
 589.2	26781
 589.7	26803
 590.2	26792
 590.8	26775
 591.3	26801
 591.9	26740
 592.4	26777
 592.9	26705
 593.5	26674
 594.0	26644
 594.5	26644
 595.1	26591
 595.6	26544
 596.1	26573
 596.7	26510
 597.2	26521
 597.7	26434
 598.3	26423
 598.8	26381
 599.3	26357
 599.9	26300
 600.4	26279
 601.0	26261
 601.5	26228
 602.0	26204
 602.6	26153
 603.1	26159
 603.6	26159
 604.2	26239
 604.7	26165
 605.2	26230
 605.8	26149
 606.3	26180
 606.8	26263
 607.4	26253
 607.9	26303
 608.4	26264
 609.0	26320
 609.5	26379
 610.0	26376
 610.6	26478
 611.1	26422
 611.6	26483
 612.2	26502
 612.7	26584
 613.2	26601
 613.8	26569
 614.3	26633
 614.8	26695
 615.4	26677
 615.9	26799
 616.4	26893
 617.0	26877
 617.5	26991
 618.0	27054
 618.6	27042
 619.1	27110
 619.6	27226
 620.2	27284
 620.7	27395
 621.2	27414
 621.8	27487
 622.3	27555
 622.8	27567
 623.4	27632
 623.9	27723
 624.4	27717
 625.0	27733
 625.5	27737
 626.0	27758
 626.6	27818
 627.1	27791
 627.6	27741
 628.2	27705
 628.7	27735
 629.2	27706
 629.8	27722
 630.3	27695
 630.8	27660
 631.4	27609
 631.9	27591
 632.4	27452
 632.9	27434
 633.5	27383
 634.0	27313
 634.5	27335
 635.1	27237
 635.6	27194
 636.1	27132
 636.7	27118
 637.2	27079
 637.7	26951
 638.3	27016
 638.8	26963
 639.3	26950
 639.8	26864
 640.4	26859
 640.9	26845
 641.4	26749
 642.0	26702
 642.5	26703
 643.0	26666
 643.6	26728
 644.1	26676
 644.6	26689
 645.1	26702
 645.7	26687
 646.2	26636
 646.7	26651
 647.3	26679
 647.8	26689
 648.3	26673
 648.9	26714
 649.4	26639
 649.9	26717
 650.4	26731
 651.0	26789
 651.5	26817
 652.0	26871
 652.6	26839
 653.1	26929
 653.6	26867
 654.1	26946
 654.7	26932
 655.2	27028
 655.7	27072
 656.3	27105
 656.8	27077
 657.3	27143
 657.8	27115
 658.4	27131
 658.9	27158
 659.4	27237
 659.9	27249
 660.5	27230
 661.0	27282
 661.5	27333
 662.1	27302
 662.6	27309
 663.1	27283
 663.6	27369
 664.2	27316
 664.7	27288
 665.2	27224
 665.7	27327
 666.3	27286
 666.8	27279
 667.3	27278
 667.8	27230
 668.4	27246
 668.9	27246
 669.4	27203
 669.9	27219
 670.5	27145
 671.0	27151
 671.5	27088
 672.0	27118
 672.6	27103
 673.1	27124
 673.6	27017
 674.1	27030
 674.7	27007
 675.2	27041
 675.7	26897
 676.2	26875
 676.8	26925
 677.3	26917
 677.8	26830
 678.3	26921
 678.9	26840
 679.4	26769
 679.9	26815
 680.4	26804
 681.0	26754
 681.5	26770
 682.0	26718
 682.5	26740
 683.1	26640
 683.6	26655
 684.1	26593
 684.6	26675
 685.1	26613
 685.7	26618
 686.2	26580
 686.7	26543
 687.2	26526
 687.8	26576
 688.3	26513
 688.8	26527
 689.3	26463
 689.8	26486
 690.4	26475
 690.9	26479
 691.4	26481
 691.9	26493
 692.4	26463
 693.0	26517
 693.5	26478
 694.0	26463
 694.5	26452
 695.1	26420
 695.6	26385
 696.1	26447
 696.6	26432
 697.1	26441
 697.7	26468
 698.2	26393
 698.7	26410
 699.2	26363
 699.7	26375
 700.3	26336
 700.8	26297
 701.3	26389
 701.8	26337
 702.3	26278
 702.8	26271
 703.4	26240
 703.9	26231
 704.4	26191
 704.9	26156
 705.4	26142
 706.0	26203
 706.5	26172
 707.0	26079
 707.5	26052
 708.0	26053
 708.5	25994
 709.1	26042
 709.6	25994
 710.1	25933
 710.6	25903
 711.1	25881
 711.7	25887
 712.2	25860
 712.7	25862
 713.2	25817
 713.7	25811
 714.2	25749
 714.8	25825
 715.3	25766
 715.8	25755
 716.3	25752
 716.8	25666
 717.3	25648
 717.8	25744
 718.4	25746
 718.9	25677
 719.4	25755
 719.9	25661
 720.4	25701
 720.9	25710
 721.4	25698
 722.0	25719
 722.5	25706
 723.0	25691
 723.5	25700
 724.0	25665
 724.5	25655
 725.0	25682
 725.6	25615
 726.1	25666
 726.6	25767
 727.1	25707
 727.6	25742
 728.1	25758
 728.6	25715
 729.1	25707
 729.7	25685
 730.2	25711
 730.7	25735
 731.2	25758
 731.7	25741
 732.2	25747
 732.7	25718
 733.2	25755
 733.8	25720
 734.3	25747
 734.8	25721
 735.3	25750
 735.8	25731
 736.3	25711
 736.8	25751
 737.3	25798
 737.8	25747
 738.4	25743
 738.9	25700
 739.4	25786
 739.9	25764
 740.4	25774
 740.9	25750
 741.4	25744
 741.9	25728
 742.4	25745
 742.9	25722
 743.4	25790
 744.0	25697
 744.5	25684
 745.0	25686
 745.5	25740
 746.0	25702
 746.5	25701
 747.0	25631
 747.5	25612
 748.0	25565
 748.5	25572
 749.0	25572
 749.5	25640
 750.0	25464
 750.5	25495
 751.1	25487
 751.6	25473
 752.1	25435
 752.6	25387
 753.1	25405
 753.6	25324
 754.1	25279
 754.6	25304
 755.1	25233
 755.6	25219
 756.1	25118
 756.6	25188
 757.1	25137
 757.6	25103
 758.1	25041
 758.6	25025
 759.1	24934
 759.6	24951
 760.1	24878
 760.7	24811
 761.2	24867
 761.7	24796
 762.2	24753
 762.7	24774
 763.2	24633
 763.7	24692
 764.2	24605
 764.7	24579
 765.2	24577
 765.7	24526
 766.2	24462
 766.7	24481
 767.2	24407
 767.7	24388
 768.2	24341
 768.7	24277
 769.2	24247
 769.7	24267
 770.2	24217
 770.7	24196
 771.2	24155
 771.7	24114
 772.2	24111
 772.7	24134
 773.2	24097
 773.7	24039
 774.2	23970
 774.7	24002
 775.2	23968
 775.7	23937
 776.2	23919
 776.7	23929
 777.2	23843
 777.7	23904
 778.2	23875
 778.7	23903
 779.2	23896
 779.7	23911
 780.2	23757
 780.7	23804
 781.2	23801
 781.7	23853
 782.2	23766
 782.6	23828
 783.1	23825
 783.6	23781
 784.1	23740
 784.6	23719
 785.1	23727
 785.6	23712
 786.1	23730
 786.6	23738
 787.1	23672
 787.6	23661
 788.1	23643
 788.6	23629
 789.1	23609
 789.6	23629
 790.1	23634
 790.6	23622
 791.1	23519
 791.6	23505
 792.0	23512
 792.5	23523
 793.0	23494
 793.5	23473
 794.0	23396
 794.5	23466
 795.0	23419
 795.5	23387
 796.0	23375
 796.5	23310
 797.0	23310
 797.5	23327
 798.0	23166
 798.4	23183
 798.9	23146
 799.4	23140
 799.9	23118
 800.4	22965
 800.9	23038
 801.4	23067
 801.9	23008
 802.4	22912
 802.9	22946
 803.3	22910
 803.8	22851
 804.3	22784
 804.8	22814
 805.3	22745
 805.8	22699
 806.3	22666
 806.8	22632
 807.2	22595
 807.7	22550
 808.2	22547
 808.7	22445
 809.2	22433
 809.7	22337
 810.2	22378
 810.7	22302
 811.1	22292
 811.6	22265
 812.1	22196
 812.6	22145
 813.1	22163
 813.6	22157
 814.1	22113
 814.5	22063
 815.0	22062
 815.5	21999
 816.0	21943
 816.5	21974
 817.0	21912
 817.4	21880
 817.9	21898
 818.4	21813
 818.9	21879
 819.4	21814
 819.9	21780
 820.3	21739
 820.8	21721
 821.3	21711
 821.8	21689
 822.3	21634
 822.7	21605
 823.2	21650
 823.7	21597
 824.2	21583
 824.7	21546
 825.2	21551
 825.6	21515
 826.1	21500
 826.6	21544
 827.1	21510
 827.6	21498
 828.0	21429
 828.5	21390
 829.0	21424
 829.5	21357
 829.9	21356
 830.4	21398
 830.9	21370
 831.4	21387
 831.9	21343
 832.3	21406
 832.8	21345
 833.3	21334
 833.8	21401
 834.2	21383
 834.7	21230
 835.2	21316
 835.7	21311
 836.1	21293
 836.6	21272
 837.1	21271
 837.6	21268
 838.0	21291
 838.5	21309
 839.0	21306
 839.5	21292
 839.9	21209
 840.4	21207
 840.9	21177
 841.4	21204
 841.8	21217
 842.3	21225
 842.8	21236
 843.3	21226
 843.7	21130
 844.2	21109
 844.7	21182
 845.1	21149
 845.6	21070
 846.1	21085
 846.6	21110
 847.0	21015
 847.5	21050
 848.0	21029
 848.4	21058
 848.9	21009
 849.4	20991
 849.8	21005
 850.3	20989
 850.8	21028
 851.3	20979
 851.7	20973
 852.2	20966
 852.7	20947
 853.1	20923
 853.6	20865
 854.1	20898
 854.5	20859
 855.0	20833
 855.5	20821
 855.9	20871
 856.4	20852
 856.9	20761
 857.3	20802
 857.8	20763
 858.3	20791
 858.7	20734
 859.2	20743
 859.7	20742
 860.1	20790
 860.6	20762
 861.1	20688
 861.5	20723
 862.0	20717
 862.4	20679
 862.9	20644
 863.4	20680
 863.8	20671
 864.3	20661
 864.8	20572
 865.2	20610
 865.7	20632
 866.1	20628
 866.6	20546
 867.1	20611
 867.5	20586
 868.0	20553
 868.5	20504
 868.9	20499
 869.4	20591
 869.8	20539
 870.3	20482
 870.8	20543
 871.2	20485
 871.7	20473
 872.1	20414
 872.6	20459
 873.0	20429
 873.5	20492
 874.0	20481
 874.4	20366
 874.9	20408
 875.3	20366
 875.8	20270
 876.2	20068
 876.7	19918
 877.2	19578
 877.6	19162
 878.1	18731
