#xlabel Wavelength (nm)
#ylabel Spectrometer Array Counts
#title Exposure time is 10000 ms
## lambda	counts
 349.8	16830
 350.3	17089
 350.8	17334
 351.3	17515
 351.9	17609
 352.4	17721
 352.9	17788
 353.4	17755
 354.0	17753
 354.5	17792
 355.0	17797
 355.5	17812
 356.0	17769
 356.6	17742
 357.1	17785
 357.6	17770
 358.1	17795
 358.7	17738
 359.2	17757
 359.7	17770
 360.2	17805
 360.8	17773
 361.3	17871
 361.8	17819
 362.3	17847
 362.9	17802
 363.4	17875
 363.9	17880
 364.4	17905
 364.9	17824
 365.5	17892
 366.0	17881
 366.5	17838
 367.0	17884
 367.6	17911
 368.1	17917
 368.6	17856
 369.1	17915
 369.7	17963
 370.2	17892
 370.7	17899
 371.2	17940
 371.8	17998
 372.3	17930
 372.8	18003
 373.3	18015
 373.9	17973
 374.4	17987
 374.9	18042
 375.5	17949
 376.0	18075
 376.5	18047
 377.0	18065
 377.6	18024
 378.1	18110
 378.6	18055
 379.1	18059
 379.7	18051
 380.2	18126
 380.7	18139
 381.2	18101
 381.8	18103
 382.3	18149
 382.8	18138
 383.4	18188
 383.9	18148
 384.4	18293
 384.9	18216
 385.5	18242
 386.0	18239
 386.5	18324
 387.1	18265
 387.6	18285
 388.1	18298
 388.6	18321
 389.2	18316
 389.7	18347
 390.2	18337
 390.8	18428
 391.3	18414
 391.8	18427
 392.3	18427
 392.9	18435
 393.4	18436
 393.9	18530
 394.5	18541
 395.0	18501
 395.5	18535
 396.0	18544
 396.6	18526
 397.1	18630
 397.6	18631
 398.2	18643
 398.7	18647
 399.2	18743
 399.8	18630
 400.3	18700
 400.8	18749
 401.3	18728
 401.9	18759
 402.4	18784
 402.9	18780
 403.5	18821
 404.0	18818
 404.5	18780
 405.1	18808
 405.6	18912
 406.1	18898
 406.7	18926
 407.2	18948
 407.7	19040
 408.2	19053
 408.8	19069
 409.3	19114
 409.8	19169
 410.4	19150
 410.9	19173
 411.4	19135
 412.0	19210
 412.5	19275
 413.0	19237
 413.6	19289
 414.1	19271
 414.6	19313
 415.2	19366
 415.7	19322
 416.2	19383
 416.8	19380
 417.3	19383
 417.8	19414
 418.4	19511
 418.9	19466
 419.4	19604
 420.0	19514
 420.5	19584
 421.0	19542
 421.5	19630
 422.1	19628
 422.6	19688
 423.1	19719
 423.7	19703
 424.2	19699
 424.7	19751
 425.3	19734
 425.8	19773
 426.3	19761
 426.9	19836
 427.4	19787
 427.9	19905
 428.5	19864
 429.0	19922
 429.6	19903
 430.1	19996
 430.6	20020
 431.2	19986
 431.7	20112
 432.2	20111
 432.8	20116
 433.3	20253
 433.8	20282
 434.4	20280
 434.9	20326
 435.4	20407
 436.0	20408
 436.5	20428
 437.0	20519
 437.6	20515
 438.1	20585
 438.6	20596
 439.2	20636
 439.7	20633
 440.2	20586
 440.8	20626
 441.3	20637
 441.8	20634
 442.4	20610
 442.9	20634
 443.5	20677
 444.0	20670
 444.5	20700
 445.1	20624
 445.6	20676
 446.1	20715
 446.7	20751
 447.2	20773
 447.7	20793
 448.3	20887
 448.8	20882
 449.3	20942
 449.9	20931
 450.4	21067
 450.9	21142
 451.5	21186
 452.0	21206
 452.6	21265
 453.1	21365
 453.6	21419
 454.2	21359
 454.7	21469
 455.2	21518
 455.8	21597
 456.3	21579
 456.8	21714
 457.4	21672
 457.9	21701
 458.5	21764
 459.0	21732
 459.5	21779
 460.1	21744
 460.6	21787
 461.1	21780
 461.7	21829
 462.2	21787
 462.7	21823
 463.3	21767
 463.8	21834
 464.4	21907
 464.9	21861
 465.4	21938
 466.0	21868
 466.5	21949
 467.0	21909
 467.6	21991
 468.1	22095
 468.7	22063
 469.2	22022
 469.7	22150
 470.3	22158
 470.8	22229
 471.3	22233
 471.9	22239
 472.4	22321
 473.0	22386
 473.5	22438
 474.0	22460
 474.6	22500
 475.1	22521
 475.6	22612
 476.2	22652
 476.7	22653
 477.3	22728
 477.8	22699
 478.3	22653
 478.9	22867
 479.4	22797
 479.9	22831
 480.5	22845
 481.0	22904
 481.6	22955
 482.1	23036
 482.6	23053
 483.2	23096
 483.7	23231
 484.2	23206
 484.8	23086
 485.3	23210
 485.9	23305
 486.4	23303
 486.9	23351
 487.5	23340
 488.0	23376
 488.6	23458
 489.1	23499
 489.6	23563
 490.2	23578
 490.7	23566
 491.2	23546
 491.8	23616
 492.3	23585
 492.9	23643
 493.4	23657
 493.9	23675
 494.5	23684
 495.0	23735
 495.6	23663
 496.1	23668
 496.6	23718
 497.2	23641
 497.7	23611
 498.2	23684
 498.8	23701
 499.3	23626
 499.9	23681
 500.4	23691
 500.9	23684
 501.5	23697
 502.0	23790
 502.6	23798
 503.1	23913
 503.6	23917
 504.2	23918
 504.7	23970
 505.2	24080
 505.8	24113
 506.3	24253
 506.9	24331
 507.4	24364
 507.9	24407
 508.5	24502
 509.0	24609
 509.6	24739
 510.1	24772
 510.6	24867
 511.2	24949
 511.7	24997
 512.2	25113
 512.8	25186
 513.3	25202
 513.9	25225
 514.4	25319
 514.9	25423
 515.5	25345
 516.0	25421
 516.6	25394
 517.1	25442
 517.6	25406
 518.2	25374
 518.7	25293
 519.3	25326
 519.8	25325
 520.3	25294
 520.9	25231
 521.4	25211
 521.9	25228
 522.5	25124
 523.0	25110
 523.6	25127
 524.1	24979
 524.6	25018
 525.2	25030
 525.7	25077
 526.3	25018
 526.8	25118
 527.3	25078
 527.9	25130
 528.4	25134
 528.9	25224
 529.5	25271
 530.0	25300
 530.6	25395
 531.1	25453
 531.6	25422
 532.2	25589
 532.7	25618
 533.3	25714
 533.8	25889
 534.3	25994
 534.9	26059
 535.4	26088
 536.0	26215
 536.5	26317
 537.0	26354
 537.6	26431
 538.1	26544
 538.6	26615
 539.2	26619
 539.7	26680
 540.3	26811
 540.8	26820
 541.3	26815
 541.9	26875
 542.4	26899
 543.0	26984
 543.5	26952
 544.0	26935
 544.6	26978
 545.1	26993
 545.6	27020
 546.2	27011
 546.7	26913
 547.3	26975
 547.8	26942
 548.3	26982
 548.9	26883
 549.4	26880
 550.0	26839
 550.5	26894
 551.0	26920
 551.6	26868
 552.1	26875
 552.6	26873
 553.2	26833
 553.7	26814
 554.3	26847
 554.8	26915
 555.3	26793
 555.9	26857
 556.4	26851
 556.9	26962
 557.5	27000
 558.0	26975
 558.6	26981
 559.1	27069
 559.6	27079
 560.2	27117
 560.7	27142
 561.3	27141
 561.8	27153
 562.3	27290
 562.9	27299
 563.4	27361
 563.9	27377
 564.5	27402
 565.0	27410
 565.6	27454
 566.1	27460
 566.6	27476
 567.2	27479
 567.7	27575
 568.2	27530
 568.8	27538
 569.3	27527
 569.9	27589
 570.4	27577
 570.9	27572
 571.5	27571
 572.0	27579
 572.5	27646
 573.1	27607
 573.6	27679
 574.1	27683
 574.7	27700
 575.2	27693
 575.8	27762
 576.3	27855
 576.8	27845
 577.4	27884
 577.9	27928
 578.4	27930
 579.0	27976
 579.5	28110
 580.1	28065
 580.6	28129
 581.1	28234
 581.7	28288
 582.2	28271
 582.7	28343
 583.3	28411
 583.8	28415
 584.3	28401
 584.9	28489
 585.4	28515
 586.0	28526
 586.5	28574
 587.0	28580
 587.6	28673
 588.1	28642
 588.6	28713
 589.2	28680
 589.7	28711
 590.2	28703
 590.8	28693
 591.3	28720
 591.9	28670
 592.4	28703
 592.9	28627
 593.5	28600
 594.0	28567
 594.5	28569
 595.1	28511
 595.6	28459
 596.1	28486
 596.7	28419
 597.2	28430
 597.7	28347
 598.3	28332
 598.8	28283
 599.3	28263
 599.9	28199
 600.4	28171
 601.0	28155
 601.5	28131
 602.0	28101
 602.6	28051
 603.1	28062
 603.6	28069
 604.2	28150
 604.7	28081
 605.2	28158
 605.8	28077
 606.3	28121
 606.8	28202
 607.4	28218
 607.9	28279
 608.4	28249
 609.0	28315
 609.5	28387
 610.0	28394
 610.6	28506
 611.1	28466
 611.6	28546
 612.2	28581
 612.7	28670
 613.2	28710
 613.8	28692
 614.3	28776
 614.8	28856
 615.4	28862
 615.9	28992
 616.4	29109
 617.0	29109
 617.5	29239
 618.0	29324
 618.6	29339
 619.1	29435
 619.6	29564
 620.2	29654
 620.7	29788
 621.2	29831
 621.8	29927
 622.3	30016
 622.8	30052
 623.4	30129
 623.9	30233
 624.4	30254
 625.0	30282
 625.5	30296
 626.0	30329
 626.6	30386
 627.1	30371
 627.6	30329
 628.2	30290
 628.7	30338
 629.2	30315
 629.8	30324
 630.3	30302
 630.8	30260
 631.4	30209
 631.9	30180
 632.4	30047
 632.9	30008
 633.5	29963
 634.0	29878
 634.5	29887
 635.1	29787
 635.6	29739
 636.1	29676
 636.7	29649
 637.2	29605
 637.7	29467
 638.3	29525
 638.8	29475
 639.3	29455
 639.8	29362
 640.4	29352
 640.9	29340
 641.4	29241
 642.0	29186
 642.5	29188
 643.0	29151
 643.6	29227
 644.1	29179
 644.6	29188
 645.1	29195
 645.7	29197
 646.2	29149
 646.7	29173
 647.3	29200
 647.8	29226
 648.3	29206
 648.9	29270
 649.4	29204
 649.9	29290
 650.4	29325
 651.0	29391
 651.5	29426
 652.0	29498
 652.6	29484
 653.1	29586
 653.6	29543
 654.1	29624
 654.7	29635
 655.2	29740
 655.7	29801
 656.3	29843
 656.8	29834
 657.3	29917
 657.8	29907
 658.4	29943
 658.9	29988
 659.4	30078
 659.9	30103
 660.5	30099
 661.0	30155
 661.5	30217
 662.1	30194
 662.6	30218
 663.1	30191
 663.6	30287
 664.2	30248
 664.7	30223
 665.2	30175
 665.7	30277
 666.3	30246
 666.8	30243
 667.3	30240
 667.8	30203
 668.4	30220
 668.9	30220
 669.4	30182
 669.9	30193
 670.5	30122
 671.0	30129
 671.5	30073
 672.0	30102
 672.6	30088
 673.1	30105
 673.6	30007
 674.1	30013
 674.7	30001
 675.2	30022
 675.7	29895
 676.2	29870
 676.8	29916
 677.3	29908
 677.8	29828
 678.3	29909
 678.9	29834
 679.4	29759
 679.9	29807
 680.4	29788
 681.0	29746
 681.5	29761
 682.0	29706
 682.5	29736
 683.1	29637
 683.6	29654
 684.1	29589
 684.6	29682
 685.1	29614
 685.7	29621
 686.2	29595
 686.7	29552
 687.2	29540
 687.8	29594
 688.3	29537
 688.8	29553
 689.3	29493
 689.8	29527
 690.4	29511
 690.9	29524
 691.4	29534
 691.9	29545
 692.4	29530
 693.0	29594
 693.5	29559
 694.0	29550
 694.5	29544
 695.1	29524
 695.6	29493
 696.1	29563
 696.6	29546
 697.1	29558
 697.7	29590
 698.2	29523
 698.7	29550
 699.2	29504
 699.7	29523
 700.3	29474
 700.8	29453
 701.3	29528
 701.8	29487
 702.3	29423
 702.8	29414
 703.4	29404
 703.9	29372
 704.4	29336
 704.9	29293
 705.4	29287
 706.0	29333
 706.5	29302
 707.0	29213
 707.5	29181
 708.0	29185
 708.5	29114
 709.1	29161
 709.6	29107
 710.1	29049
 710.6	29007
 711.1	28983
 711.7	28986
 712.2	28952
 712.7	28963
 713.2	28912
 713.7	28902
 714.2	28852
 714.8	28923
 715.3	28875
 715.8	28854
 716.3	28855
 716.8	28790
 717.3	28773
 717.8	28861
 718.4	28874
 718.9	28808
 719.4	28898
 719.9	28806
 720.4	28852
 720.9	28872
 721.4	28860
 722.0	28886
 722.5	28891
 723.0	28882
 723.5	28895
 724.0	28871
 724.5	28870
 725.0	28911
 725.6	28853
 726.1	28904
 726.6	29018
 727.1	28959
 727.6	29003
 728.1	29031
 728.6	28985
 729.1	28984
 729.7	28974
 730.2	28999
 730.7	29023
 731.2	29061
 731.7	29046
 732.2	29060
 732.7	29032
 733.2	29071
 733.8	29041
 734.3	29073
 734.8	29063
 735.3	29100
 735.8	29103
 736.3	29095
 736.8	29140
 737.3	29196
 737.8	29156
 738.4	29161
 738.9	29131
 739.4	29222
 739.9	29201
 740.4	29224
 740.9	29203
 741.4	29203
 741.9	29197
 742.4	29214
 742.9	29201
 743.4	29263
 744.0	29170
 744.5	29150
 745.0	29154
 745.5	29210
 746.0	29166
 746.5	29174
 747.0	29108
 747.5	29078
 748.0	29044
 748.5	29042
 749.0	29040
 749.5	29094
 750.0	28928
 750.5	28948
 751.1	28923
 751.6	28911
 752.1	28868
 752.6	28822
 753.1	28835
 753.6	28752
 754.1	28699
 754.6	28709
 755.1	28637
 755.6	28615
 756.1	28507
 756.6	28571
 757.1	28511
 757.6	28466
 758.1	28393
 758.6	28370
 759.1	28266
 759.6	28271
 760.1	28189
 760.7	28114
 761.2	28159
 761.7	28088
 762.2	28035
 762.7	28050
 763.2	27904
 763.7	27938
 764.2	27839
 764.7	27812
 765.2	27791
 765.7	27725
 766.2	27658
 766.7	27647
 767.2	27563
 767.7	27526
 768.2	27469
 768.7	27402
 769.2	27357
 769.7	27364
 770.2	27305
 770.7	27278
 771.2	27230
 771.7	27183
 772.2	27171
 772.7	27188
 773.2	27139
 773.7	27081
 774.2	27008
 774.7	27030
 775.2	26987
 775.7	26949
 776.2	26921
 776.7	26934
 777.2	26851
 777.7	26900
 778.2	26862
 778.7	26891
 779.2	26879
 779.7	26891
 780.2	26737
 780.7	26778
 781.2	26765
 781.7	26813
 782.2	26732
 782.6	26789
 783.1	26776
 783.6	26741
 784.1	26691
 784.6	26673
 785.1	26679
 785.6	26669
 786.1	26682
 786.6	26684
 787.1	26622
 787.6	26612
 788.1	26577
 788.6	26564
 789.1	26545
 789.6	26554
 790.1	26554
 790.6	26532
 791.1	26423
 791.6	26408
 792.0	26398
 792.5	26407
 793.0	26359
 793.5	26335
 794.0	26251
 794.5	26307
 795.0	26250
 795.5	26215
 796.0	26183
 796.5	26110
 797.0	26099
 797.5	26102
 798.0	25931
 798.4	25932
 798.9	25880
 799.4	25857
 799.9	25817
 800.4	25657
 800.9	25711
 801.4	25715
 801.9	25636
 802.4	25519
 802.9	25536
 803.3	25479
 803.8	25406
 804.3	25321
 804.8	25330
 805.3	25247
 805.8	25178
 806.3	25132
 806.8	25074
 807.2	25019
 807.7	24954
 808.2	24932
 808.7	24815
 809.2	24786
 809.7	24678
 810.2	24697
 810.7	24603
 811.1	24570
 811.6	24527
 812.1	24440
 812.6	24367
 813.1	24375
 813.6	24353
 814.1	24299
 814.5	24225
 815.0	24206
 815.5	24129
 816.0	24065
 816.5	24084
 817.0	24008
 817.4	23960
 817.9	23963
 818.4	23866
 818.9	23911
 819.4	23834
 819.9	23795
 820.3	23744
 820.8	23710
 821.3	23691
 821.8	23663
 822.3	23593
 822.7	23553
 823.2	23587
 823.7	23523
 824.2	23501
 824.7	23460
 825.2	23452
 825.6	23409
 826.1	23381
 826.6	23419
 827.1	23379
 827.6	23353
 828.0	23287
 828.5	23236
 829.0	23254
 829.5	23191
 829.9	23179
 830.4	23214
 830.9	23179
 831.4	23186
 831.9	23135
 832.3	23191
 832.8	23117
 833.3	23109
 833.8	23175
 834.2	23147
 834.7	22990
 835.2	23071
 835.7	23059
 836.1	23036
 836.6	23013
 837.1	23002
 837.6	22996
 838.0	23013
 838.5	23023
 839.0	23017
 839.5	23004
 839.9	22915
 840.4	22910
 840.9	22870
 841.4	22893
 841.8	22900
 842.3	22906
 842.8	22910
 843.3	22899
 843.7	22792
 844.2	22767
 844.7	22835
 845.1	22798
 845.6	22715
 846.1	22721
 846.6	22739
 847.0	22643
 847.5	22673
 848.0	22643
 848.4	22665
 848.9	22609
 849.4	22576
 849.8	22580
 850.3	22565
 850.8	22594
 851.3	22540
 851.7	22514
 852.2	22505
 852.7	22486
 853.1	22453
 853.6	22382
 854.1	22402
 854.5	22353
 855.0	22326
 855.5	22301
 855.9	22340
 856.4	22306
 856.9	22212
 857.3	22237
 857.8	22186
 858.3	22201
 858.7	22130
 859.2	22133
 859.7	22132
 860.1	22168
 860.6	22128
 861.1	22047
 861.5	22072
 862.0	22057
 862.4	22011
 862.9	21961
 863.4	21987
 863.8	21965
 864.3	21948
 864.8	21851
 865.2	21880
 865.7	21886
 866.1	21882
 866.6	21791
 867.1	21846
 867.5	21820
 868.0	21783
 868.5	21719
 868.9	21703
 869.4	21787
 869.8	21731
 870.3	21669
 870.8	21724
 871.2	21663
 871.7	21644
 872.1	21574
 872.6	21619
 873.0	21582
 873.5	21643
 874.0	21631
 874.4	21509
 874.9	21542
 875.3	21498
 875.8	21393
 876.2	21186
 876.7	21019
 877.2	20662
 877.6	20221
 878.1	19753
