#xlabel Wavelength (nm)
#ylabel Spectrometer Array Counts
#title Exposure time is 10000 ms
## lambda	counts
 349.8	16884
 350.3	17160
 350.8	17421
 351.3	17593
 351.9	17674
 352.4	17775
 352.9	17832
 353.4	17790
 354.0	17778
 354.5	17806
 355.0	17806
 355.5	17823
 356.0	17781
 356.6	17750
 357.1	17801
 357.6	17778
 358.1	17804
 358.7	17754
 359.2	17769
 359.7	17789
 360.2	17815
 360.8	17787
 361.3	17883
 361.8	17831
 362.3	17859
 362.9	17818
 363.4	17889
 363.9	17892
 364.4	17922
 364.9	17841
 365.5	17911
 366.0	17897
 366.5	17856
 367.0	17905
 367.6	17928
 368.1	17929
 368.6	17870
 369.1	17931
 369.7	17981
 370.2	17911
 370.7	17915
 371.2	17954
 371.8	18013
 372.3	17943
 372.8	18024
 373.3	18039
 373.9	17986
 374.4	18007
 374.9	18056
 375.5	17967
 376.0	18089
 376.5	18059
 377.0	18092
 377.6	18039
 378.1	18128
 378.6	18069
 379.1	18077
 379.7	18067
 380.2	18144
 380.7	18154
 381.2	18115
 381.8	18119
 382.3	18163
 382.8	18151
 383.4	18201
 383.9	18162
 384.4	18308
 384.9	18230
 385.5	18254
 386.0	18258
 386.5	18342
 387.1	18276
 387.6	18304
 388.1	18309
 388.6	18333
 389.2	18334
 389.7	18360
 390.2	18354
 390.8	18446
 391.3	18429
 391.8	18439
 392.3	18440
 392.9	18455
 393.4	18458
 393.9	18538
 394.5	18555
 395.0	18517
 395.5	18552
 396.0	18562
 396.6	18544
 397.1	18648
 397.6	18648
 398.2	18662
 398.7	18668
 399.2	18764
 399.8	18646
 400.3	18718
 400.8	18763
 401.3	18746
 401.9	18772
 402.4	18797
 402.9	18795
 403.5	18840
 404.0	18834
 404.5	18803
 405.1	18824
 405.6	18932
 406.1	18914
 406.7	18939
 407.2	18965
 407.7	19054
 408.2	19066
 408.8	19081
 409.3	19133
 409.8	19191
 410.4	19172
 410.9	19193
 411.4	19157
 412.0	19229
 412.5	19291
 413.0	19258
 413.6	19310
 414.1	19291
 414.6	19333
 415.2	19383
 415.7	19339
 416.2	19399
 416.8	19395
 417.3	19400
 417.8	19431
 418.4	19531
 418.9	19486
 419.4	19621
 420.0	19527
 420.5	19603
 421.0	19562
 421.5	19654
 422.1	19643
 422.6	19705
 423.1	19740
 423.7	19723
 424.2	19719
 424.7	19768
 425.3	19751
 425.8	19784
 426.3	19777
 426.9	19849
 427.4	19803
 427.9	19922
 428.5	19882
 429.0	19935
 429.6	19919
 430.1	20010
 430.6	20041
 431.2	20002
 431.7	20128
 432.2	20127
 432.8	20133
 433.3	20265
 433.8	20300
 434.4	20299
 434.9	20342
 435.4	20418
 436.0	20426
 436.5	20446
 437.0	20540
 437.6	20535
 438.1	20595
 438.6	20618
 439.2	20657
 439.7	20655
 440.2	20609
 440.8	20638
 441.3	20653
 441.8	20652
 442.4	20624
 442.9	20658
 443.5	20691
 444.0	20689
 444.5	20722
 445.1	20641
 445.6	20694
 446.1	20732
 446.7	20764
 447.2	20795
 447.7	20807
 448.3	20905
 448.8	20899
 449.3	20963
 449.9	20953
 450.4	21086
 450.9	21164
 451.5	21204
 452.0	21222
 452.6	21286
 453.1	21391
 453.6	21441
 454.2	21375
 454.7	21489
 455.2	21540
 455.8	21622
 456.3	21598
 456.8	21736
 457.4	21698
 457.9	21725
 458.5	21785
 459.0	21755
 459.5	21802
 460.1	21757
 460.6	21812
 461.1	21799
 461.7	21850
 462.2	21806
 462.7	21847
 463.3	21787
 463.8	21857
 464.4	21932
 464.9	21881
 465.4	21962
 466.0	21883
 466.5	21969
 467.0	21929
 467.6	22014
 468.1	22123
 468.7	22084
 469.2	22046
 469.7	22173
 470.3	22182
 470.8	22249
 471.3	22251
 471.9	22259
 472.4	22337
 473.0	22406
 473.5	22457
 474.0	22487
 474.6	22512
 475.1	22539
 475.6	22638
 476.2	22674
 476.7	22675
 477.3	22757
 477.8	22726
 478.3	22677
 478.9	22895
 479.4	22819
 479.9	22849
 480.5	22865
 481.0	22927
 481.6	22973
 482.1	23059
 482.6	23079
 483.2	23121
 483.7	23252
 484.2	23227
 484.8	23112
 485.3	23230
 485.9	23329
 486.4	23326
 486.9	23372
 487.5	23364
 488.0	23395
 488.6	23479
 489.1	23519
 489.6	23587
 490.2	23602
 490.7	23587
 491.2	23570
 491.8	23643
 492.3	23604
 492.9	23662
 493.4	23679
 493.9	23700
 494.5	23707
 495.0	23765
 495.6	23681
 496.1	23697
 496.6	23741
 497.2	23666
 497.7	23637
 498.2	23707
 498.8	23722
 499.3	23651
 499.9	23702
 500.4	23703
 500.9	23703
 501.5	23726
 502.0	23813
 502.6	23821
 503.1	23938
 503.6	23934
 504.2	23945
 504.7	23994
 505.2	24100
 505.8	24137
 506.3	24282
 506.9	24353
 507.4	24385
 507.9	24431
 508.5	24527
 509.0	24638
 509.6	24764
 510.1	24799
 510.6	24892
 511.2	24974
 511.7	25021
 512.2	25140
 512.8	25220
 513.3	25228
 513.9	25258
 514.4	25346
 514.9	25452
 515.5	25364
 516.0	25444
 516.6	25421
 517.1	25465
 517.6	25431
 518.2	25398
 518.7	25322
 519.3	25349
 519.8	25351
 520.3	25321
 520.9	25253
 521.4	25231
 521.9	25255
 522.5	25150
 523.0	25135
 523.6	25154
 524.1	25005
 524.6	25038
 525.2	25052
 525.7	25094
 526.3	25041
 526.8	25132
 527.3	25107
 527.9	25147
 528.4	25164
 528.9	25247
 529.5	25297
 530.0	25319
 530.6	25414
 531.1	25473
 531.6	25442
 532.2	25613
 532.7	25638
 533.3	25743
 533.8	25916
 534.3	26023
 534.9	26076
 535.4	26113
 536.0	26237
 536.5	26342
 537.0	26382
 537.6	26463
 538.1	26573
 538.6	26643
 539.2	26636
 539.7	26711
 540.3	26838
 540.8	26853
 541.3	26842
 541.9	26901
 542.4	26932
 543.0	27007
 543.5	26981
 544.0	26969
 544.6	27001
 545.1	27025
 545.6	27047
 546.2	27030
 546.7	26937
 547.3	26997
 547.8	26968
 548.3	27003
 548.9	26902
 549.4	26905
 550.0	26867
 550.5	26915
 551.0	26951
 551.6	26891
 552.1	26894
 552.6	26897
 553.2	26854
 553.7	26836
 554.3	26867
 554.8	26939
 555.3	26815
 555.9	26880
 556.4	26871
 556.9	26987
 557.5	27030
 558.0	27006
 558.6	27009
 559.1	27095
 559.6	27101
 560.2	27143
 560.7	27169
 561.3	27167
 561.8	27171
 562.3	27315
 562.9	27322
 563.4	27382
 563.9	27398
 564.5	27430
 565.0	27438
 565.6	27471
 566.1	27490
 566.6	27503
 567.2	27504
 567.7	27599
 568.2	27550
 568.8	27555
 569.3	27554
 569.9	27620
 570.4	27604
 570.9	27600
 571.5	27593
 572.0	27607
 572.5	27669
 573.1	27631
 573.6	27711
 574.1	27704
 574.7	27725
 575.2	27721
 575.8	27786
 576.3	27877
 576.8	27870
 577.4	27911
 577.9	27956
 578.4	27954
 579.0	28002
 579.5	28140
 580.1	28094
 580.6	28153
 581.1	28261
 581.7	28315
 582.2	28298
 582.7	28369
 583.3	28443
 583.8	28445
 584.3	28427
 584.9	28517
 585.4	28542
 586.0	28551
 586.5	28607
 587.0	28603
 587.6	28702
 588.1	28668
 588.6	28745
 589.2	28710
 589.7	28742
 590.2	28735
 590.8	28729
 591.3	28747
 591.9	28692
 592.4	28731
 592.9	28656
 593.5	28631
 594.0	28600
 594.5	28592
 595.1	28538
 595.6	28489
 596.1	28514
 596.7	28452
 597.2	28459
 597.7	28373
 598.3	28358
 598.8	28311
 599.3	28288
 599.9	28224
 600.4	28196
 601.0	28180
 601.5	28154
 602.0	28126
 602.6	28078
 603.1	28091
 603.6	28091
 604.2	28175
 604.7	28107
 605.2	28179
 605.8	28107
 606.3	28145
 606.8	28232
 607.4	28244
 607.9	28306
 608.4	28274
 609.0	28342
 609.5	28411
 610.0	28419
 610.6	28536
 611.1	28498
 611.6	28574
 612.2	28607
 612.7	28700
 613.2	28733
 613.8	28723
 614.3	28799
 614.8	28878
 615.4	28888
 615.9	29019
 616.4	29134
 617.0	29142
 617.5	29271
 618.0	29350
 618.6	29364
 619.1	29464
 619.6	29591
 620.2	29684
 620.7	29814
 621.2	29860
 621.8	29955
 622.3	30050
 622.8	30084
 623.4	30162
 623.9	30266
 624.4	30283
 625.0	30312
 625.5	30326
 626.0	30353
 626.6	30424
 627.1	30403
 627.6	30359
 628.2	30323
 628.7	30372
 629.2	30346
 629.8	30355
 630.3	30335
 630.8	30293
 631.4	30235
 631.9	30215
 632.4	30067
 632.9	30038
 633.5	29990
 634.0	29912
 634.5	29918
 635.1	29821
 635.6	29769
 636.1	29702
 636.7	29675
 637.2	29631
 637.7	29494
 638.3	29554
 638.8	29502
 639.3	29474
 639.8	29389
 640.4	29380
 640.9	29371
 641.4	29267
 642.0	29219
 642.5	29214
 643.0	29182
 643.6	29250
 644.1	29191
 644.6	29215
 645.1	29224
 645.7	29221
 646.2	29174
 646.7	29201
 647.3	29231
 647.8	29250
 648.3	29236
 648.9	29294
 649.4	29230
 649.9	29315
 650.4	29336
 651.0	29417
 651.5	29447
 652.0	29521
 652.6	29512
 653.1	29612
 653.6	29565
 654.1	29649
 654.7	29657
 655.2	29771
 655.7	29838
 656.3	29872
 656.8	29865
 657.3	29950
 657.8	29938
 658.4	29977
 658.9	30017
 659.4	30107
 659.9	30129
 660.5	30122
 661.0	30187
 661.5	30243
 662.1	30222
 662.6	30248
 663.1	30230
 663.6	30316
 664.2	30278
 664.7	30258
 665.2	30202
 665.7	30310
 666.3	30269
 666.8	30267
 667.3	30265
 667.8	30230
 668.4	30250
 668.9	30250
 669.4	30209
 669.9	30222
 670.5	30153
 671.0	30157
 671.5	30107
 672.0	30130
 672.6	30113
 673.1	30135
 673.6	30034
 674.1	30049
 674.7	30021
 675.2	30052
 675.7	29911
 676.2	29893
 676.8	29950
 677.3	29939
 677.8	29855
 678.3	29934
 678.9	29864
 679.4	29787
 679.9	29839
 680.4	29819
 681.0	29772
 681.5	29789
 682.0	29734
 682.5	29759
 683.1	29665
 683.6	29679
 684.1	29615
 684.6	29706
 685.1	29649
 685.7	29649
 686.2	29620
 686.7	29587
 687.2	29566
 687.8	29622
 688.3	29564
 688.8	29578
 689.3	29519
 689.8	29551
 690.4	29538
 690.9	29555
 691.4	29572
 691.9	29577
 692.4	29559
 693.0	29615
 693.5	29583
 694.0	29572
 694.5	29563
 695.1	29559
 695.6	29517
 696.1	29588
 696.6	29574
 697.1	29592
 697.7	29617
 698.2	29547
 698.7	29572
 699.2	29531
 699.7	29542
 700.3	29498
 700.8	29476
 701.3	29550
 701.8	29510
 702.3	29452
 702.8	29451
 703.4	29427
 703.9	29400
 704.4	29367
 704.9	29324
 705.4	29313
 706.0	29366
 706.5	29327
 707.0	29241
 707.5	29207
 708.0	29211
 708.5	29147
 709.1	29187
 709.6	29133
 710.1	29071
 710.6	29042
 711.1	29017
 711.7	29014
 712.2	28985
 712.7	28986
 713.2	28941
 713.7	28932
 714.2	28876
 714.8	28956
 715.3	28891
 715.8	28882
 716.3	28878
 716.8	28808
 717.3	28792
 717.8	28886
 718.4	28901
 718.9	28835
 719.4	28919
 719.9	28833
 720.4	28877
 720.9	28901
 721.4	28882
 722.0	28916
 722.5	28913
 723.0	28911
 723.5	28925
 724.0	28897
 724.5	28892
 725.0	28932
 725.6	28877
 726.1	28938
 726.6	29039
 727.1	28989
 727.6	29028
 728.1	29054
 728.6	29014
 729.1	29014
 729.7	28995
 730.2	29029
 730.7	29051
 731.2	29087
 731.7	29069
 732.2	29087
 732.7	29063
 733.2	29095
 733.8	29070
 734.3	29104
 734.8	29086
 735.3	29127
 735.8	29123
 736.3	29120
 736.8	29166
 737.3	29219
 737.8	29180
 738.4	29184
 738.9	29150
 739.4	29242
 739.9	29224
 740.4	29252
 740.9	29232
 741.4	29238
 741.9	29230
 742.4	29244
 742.9	29218
 743.4	29285
 744.0	29195
 744.5	29185
 745.0	29178
 745.5	29239
 746.0	29197
 746.5	29202
 747.0	29129
 747.5	29101
 748.0	29062
 748.5	29070
 749.0	29065
 749.5	29121
 750.0	28951
 750.5	28976
 751.1	28955
 751.6	28935
 752.1	28891
 752.6	28844
 753.1	28858
 753.6	28778
 754.1	28735
 754.6	28735
 755.1	28667
 755.6	28635
 756.1	28534
 756.6	28589
 757.1	28536
 757.6	28489
 758.1	28421
 758.6	28389
 759.1	28290
 759.6	28296
 760.1	28216
 760.7	28137
 761.2	28188
 761.7	28113
 762.2	28062
 762.7	28065
 763.2	27924
 763.7	27960
 764.2	27868
 764.7	27830
 765.2	27815
 765.7	27749
 766.2	27676
 766.7	27670
 767.2	27589
 767.7	27549
 768.2	27491
 768.7	27425
 769.2	27380
 769.7	27390
 770.2	27337
 770.7	27311
 771.2	27259
 771.7	27207
 772.2	27201
 772.7	27216
 773.2	27163
 773.7	27097
 774.2	27029
 774.7	27052
 775.2	27005
 775.7	26971
 776.2	26943
 776.7	26961
 777.2	26875
 777.7	26923
 778.2	26883
 778.7	26908
 779.2	26902
 779.7	26910
 780.2	26757
 780.7	26801
 781.2	26794
 781.7	26840
 782.2	26760
 782.6	26807
 783.1	26806
 783.6	26768
 784.1	26712
 784.6	26699
 785.1	26697
 785.6	26690
 786.1	26703
 786.6	26705
 787.1	26648
 787.6	26631
 788.1	26607
 788.6	26594
 789.1	26564
 789.6	26572
 790.1	26577
 790.6	26555
 791.1	26444
 791.6	26430
 792.0	26424
 792.5	26424
 793.0	26385
 793.5	26359
 794.0	26271
 794.5	26323
 795.0	26271
 795.5	26239
 796.0	26211
 796.5	26137
 797.0	26123
 797.5	26125
 798.0	25951
 798.4	25951
 798.9	25900
 799.4	25877
 799.9	25839
 800.4	25674
 800.9	25732
 801.4	25735
 801.9	25657
 802.4	25547
 802.9	25556
 803.3	25505
 803.8	25429
 804.3	25343
 804.8	25350
 805.3	25270
 805.8	25199
 806.3	25154
 806.8	25093
 807.2	25042
 807.7	24981
 808.2	24949
 808.7	24838
 809.2	24805
 809.7	24696
 810.2	24715
 810.7	24622
 811.1	24587
 811.6	24541
 812.1	24461
 812.6	24387
 813.1	24391
 813.6	24377
 814.1	24323
 814.5	24252
 815.0	24230
 815.5	24154
 816.0	24088
 816.5	24107
 817.0	24029
 817.4	23978
 817.9	23987
 818.4	23882
 818.9	23936
 819.4	23859
 819.9	23818
 820.3	23766
 820.8	23732
 821.3	23711
 821.8	23685
 822.3	23611
 822.7	23574
 823.2	23601
 823.7	23545
 824.2	23527
 824.7	23478
 825.2	23471
 825.6	23426
 826.1	23405
 826.6	23434
 827.1	23400
 827.6	23378
 828.0	23306
 828.5	23261
 829.0	23278
 829.5	23211
 829.9	23199
 830.4	23235
 830.9	23198
 831.4	23208
 831.9	23158
 832.3	23214
 832.8	23140
 833.3	23131
 833.8	23194
 834.2	23169
 834.7	23009
 835.2	23089
 835.7	23077
 836.1	23058
 836.6	23032
 837.1	23018
 837.6	23017
 838.0	23031
 838.5	23041
 839.0	23036
 839.5	23025
 839.9	22935
 840.4	22932
 840.9	22893
 841.4	22911
 841.8	22926
 842.3	22930
 842.8	22927
 843.3	22915
 843.7	22807
 844.2	22787
 844.7	22853
 845.1	22819
 845.6	22734
 846.1	22738
 846.6	22760
 847.0	22661
 847.5	22689
 848.0	22660
 848.4	22682
 848.9	22628
 849.4	22597
 849.8	22600
 850.3	22587
 850.8	22612
 851.3	22560
 851.7	22539
 852.2	22526
 852.7	22502
 853.1	22471
 853.6	22400
 854.1	22420
 854.5	22375
 855.0	22340
 855.5	22321
 855.9	22363
 856.4	22326
 856.9	22227
 857.3	22256
 857.8	22207
 858.3	22214
 858.7	22150
 859.2	22158
 859.7	22149
 860.1	22183
 860.6	22147
 861.1	22064
 861.5	22090
 862.0	22077
 862.4	22025
 862.9	21982
 863.4	22011
 863.8	21990
 864.3	21962
 864.8	21871
 865.2	21899
 865.7	21902
 866.1	21899
 866.6	21807
 867.1	21865
 867.5	21841
 868.0	21799
 868.5	21740
 868.9	21717
 869.4	21799
 869.8	21745
 870.3	21682
 870.8	21735
 871.2	21678
 871.7	21654
 872.1	21593
 872.6	21629
 873.0	21594
 873.5	21653
 874.0	21644
 874.4	21544
 874.9	21580
 875.3	21559
 875.8	21475
 876.2	21289
 876.7	21139
 877.2	20772
 877.6	20305
 878.1	19790
