#xlabel Wavelength (nm)
#ylabel Spectrometer Array Counts
#title Exposure time is 10000 ms
## lambda	counts
 349.8	16799
 350.3	17038
 350.8	17271
 351.3	17443
 351.9	17536
 352.4	17655
 352.9	17730
 353.4	17711
 354.0	17718
 354.5	17764
 355.0	17780
 355.5	17796
 356.0	17763
 356.6	17733
 357.1	17782
 357.6	17763
 358.1	17789
 358.7	17727
 359.2	17748
 359.7	17758
 360.2	17791
 360.8	17761
 361.3	17854
 361.8	17801
 362.3	17830
 362.9	17789
 363.4	17859
 363.9	17861
 364.4	17892
 364.9	17808
 365.5	17876
 366.0	17867
 366.5	17823
 367.0	17868
 367.6	17896
 368.1	17898
 368.6	17839
 369.1	17899
 369.7	17951
 370.2	17885
 370.7	17885
 371.2	17922
 371.8	17981
 372.3	17910
 372.8	17989
 373.3	18006
 373.9	17958
 374.4	17978
 374.9	18025
 375.5	17938
 376.0	18053
 376.5	18028
 377.0	18060
 377.6	18008
 378.1	18098
 378.6	18041
 379.1	18044
 379.7	18034
 380.2	18118
 380.7	18124
 381.2	18085
 381.8	18087
 382.3	18134
 382.8	18117
 383.4	18173
 383.9	18130
 384.4	18283
 384.9	18202
 385.5	18226
 386.0	18233
 386.5	18310
 387.1	18248
 387.6	18269
 388.1	18282
 388.6	18305
 389.2	18300
 389.7	18329
 390.2	18324
 390.8	18417
 391.3	18401
 391.8	18405
 392.3	18411
 392.9	18419
 393.4	18422
 393.9	18509
 394.5	18523
 395.0	18489
 395.5	18521
 396.0	18533
 396.6	18513
 397.1	18620
 397.6	18618
 398.2	18627
 398.7	18634
 399.2	18729
 399.8	18617
 400.3	18683
 400.8	18735
 401.3	18715
 401.9	18744
 402.4	18769
 402.9	18766
 403.5	18806
 404.0	18809
 404.5	18769
 405.1	18798
 405.6	18901
 406.1	18885
 406.7	18911
 407.2	18934
 407.7	19027
 408.2	19039
 408.8	19051
 409.3	19098
 409.8	19156
 410.4	19140
 410.9	19159
 411.4	19126
 412.0	19198
 412.5	19260
 413.0	19224
 413.6	19278
 414.1	19258
 414.6	19299
 415.2	19355
 415.7	19307
 416.2	19372
 416.8	19367
 417.3	19370
 417.8	19397
 418.4	19500
 418.9	19454
 419.4	19588
 420.0	19493
 420.5	19570
 421.0	19526
 421.5	19620
 422.1	19613
 422.6	19674
 423.1	19705
 423.7	19691
 424.2	19684
 424.7	19738
 425.3	19722
 425.8	19757
 426.3	19752
 426.9	19823
 427.4	19774
 427.9	19891
 428.5	19850
 429.0	19910
 429.6	19886
 430.1	19978
 430.6	20006
 431.2	19974
 431.7	20101
 432.2	20090
 432.8	20105
 433.3	20237
 433.8	20269
 434.4	20271
 434.9	20312
 435.4	20389
 436.0	20395
 436.5	20413
 437.0	20508
 437.6	20506
 438.1	20570
 438.6	20582
 439.2	20627
 439.7	20618
 440.2	20573
 440.8	20613
 441.3	20618
 441.8	20622
 442.4	20602
 442.9	20625
 443.5	20660
 444.0	20662
 444.5	20688
 445.1	20618
 445.6	20666
 446.1	20705
 446.7	20734
 447.2	20771
 447.7	20784
 448.3	20874
 448.8	20867
 449.3	20932
 449.9	20922
 450.4	21059
 450.9	21133
 451.5	21175
 452.0	21193
 452.6	21252
 453.1	21355
 453.6	21405
 454.2	21347
 454.7	21454
 455.2	21507
 455.8	21591
 456.3	21565
 456.8	21711
 457.4	21663
 457.9	21691
 458.5	21750
 459.0	21720
 459.5	21767
 460.1	21731
 460.6	21785
 461.1	21771
 461.7	21814
 462.2	21771
 462.7	21815
 463.3	21761
 463.8	21827
 464.4	21898
 464.9	21853
 465.4	21927
 466.0	21860
 466.5	21944
 467.0	21899
 467.6	21984
 468.1	22086
 468.7	22052
 469.2	22014
 469.7	22142
 470.3	22150
 470.8	22215
 471.3	22228
 471.9	22234
 472.4	22308
 473.0	22378
 473.5	22424
 474.0	22450
 474.6	22486
 475.1	22510
 475.6	22607
 476.2	22637
 476.7	22642
 477.3	22722
 477.8	22693
 478.3	22653
 478.9	22858
 479.4	22778
 479.9	22822
 480.5	22837
 481.0	22902
 481.6	22948
 482.1	23029
 482.6	23047
 483.2	23086
 483.7	23222
 484.2	23199
 484.8	23087
 485.3	23202
 485.9	23297
 486.4	23294
 486.9	23342
 487.5	23330
 488.0	23362
 488.6	23447
 489.1	23489
 489.6	23553
 490.2	23572
 490.7	23557
 491.2	23537
 491.8	23608
 492.3	23573
 492.9	23638
 493.4	23647
 493.9	23666
 494.5	23676
 495.0	23731
 495.6	23647
 496.1	23660
 496.6	23711
 497.2	23633
 497.7	23606
 498.2	23678
 498.8	23690
 499.3	23616
 499.9	23672
 500.4	23680
 500.9	23674
 501.5	23691
 502.0	23788
 502.6	23795
 503.1	23909
 503.6	23911
 504.2	23904
 504.7	23965
 505.2	24071
 505.8	24108
 506.3	24250
 506.9	24320
 507.4	24359
 507.9	24397
 508.5	24498
 509.0	24607
 509.6	24733
 510.1	24765
 510.6	24863
 511.2	24943
 511.7	24988
 512.2	25105
 512.8	25180
 513.3	25194
 513.9	25225
 514.4	25309
 514.9	25418
 515.5	25332
 516.0	25413
 516.6	25388
 517.1	25431
 517.6	25395
 518.2	25365
 518.7	25289
 519.3	25311
 519.8	25322
 520.3	25288
 520.9	25223
 521.4	25205
 521.9	25223
 522.5	25121
 523.0	25108
 523.6	25118
 524.1	24971
 524.6	25014
 525.2	25027
 525.7	25070
 526.3	25010
 526.8	25107
 527.3	25071
 527.9	25124
 528.4	25132
 528.9	25217
 529.5	25263
 530.0	25294
 530.6	25385
 531.1	25447
 531.6	25414
 532.2	25587
 532.7	25612
 533.3	25711
 533.8	25878
 534.3	25989
 534.9	26047
 535.4	26076
 536.0	26209
 536.5	26306
 537.0	26346
 537.6	26430
 538.1	26536
 538.6	26607
 539.2	26611
 539.7	26679
 540.3	26805
 540.8	26819
 541.3	26813
 541.9	26868
 542.4	26897
 543.0	26967
 543.5	26955
 544.0	26939
 544.6	26967
 545.1	26992
 545.6	27017
 546.2	27002
 546.7	26905
 547.3	26970
 547.8	26933
 548.3	26974
 548.9	26876
 549.4	26870
 550.0	26836
 550.5	26880
 551.0	26918
 551.6	26861
 552.1	26873
 552.6	26870
 553.2	26823
 553.7	26808
 554.3	26841
 554.8	26911
 555.3	26786
 555.9	26849
 556.4	26841
 556.9	26956
 557.5	26998
 558.0	26976
 558.6	26972
 559.1	27063
 559.6	27073
 560.2	27115
 560.7	27139
 561.3	27138
 561.8	27145
 562.3	27283
 562.9	27297
 563.4	27354
 563.9	27363
 564.5	27400
 565.0	27402
 565.6	27438
 566.1	27453
 566.6	27469
 567.2	27469
 567.7	27572
 568.2	27521
 568.8	27529
 569.3	27519
 569.9	27587
 570.4	27570
 570.9	27564
 571.5	27562
 572.0	27575
 572.5	27638
 573.1	27602
 573.6	27678
 574.1	27677
 574.7	27700
 575.2	27695
 575.8	27759
 576.3	27847
 576.8	27846
 577.4	27879
 577.9	27927
 578.4	27926
 579.0	27971
 579.5	28105
 580.1	28063
 580.6	28121
 581.1	28229
 581.7	28285
 582.2	28266
 582.7	28336
 583.3	28410
 583.8	28417
 584.3	28398
 584.9	28482
 585.4	28515
 586.0	28518
 586.5	28570
 587.0	28577
 587.6	28664
 588.1	28633
 588.6	28710
 589.2	28673
 589.7	28707
 590.2	28709
 590.8	28687
 591.3	28713
 591.9	28659
 592.4	28699
 592.9	28626
 593.5	28604
 594.0	28573
 594.5	28561
 595.1	28507
 595.6	28451
 596.1	28482
 596.7	28412
 597.2	28419
 597.7	28340
 598.3	28331
 598.8	28282
 599.3	28253
 599.9	28186
 600.4	28164
 601.0	28151
 601.5	28123
 602.0	28095
 602.6	28045
 603.1	28061
 603.6	28066
 604.2	28147
 604.7	28074
 605.2	28149
 605.8	28077
 606.3	28119
 606.8	28204
 607.4	28213
 607.9	28275
 608.4	28243
 609.0	28309
 609.5	28378
 610.0	28390
 610.6	28508
 611.1	28468
 611.6	28542
 612.2	28575
 612.7	28668
 613.2	28702
 613.8	28693
 614.3	28767
 614.8	28850
 615.4	28856
 615.9	28991
 616.4	29105
 617.0	29105
 617.5	29231
 618.0	29313
 618.6	29339
 619.1	29431
 619.6	29560
 620.2	29654
 620.7	29781
 621.2	29826
 621.8	29919
 622.3	30004
 622.8	30051
 623.4	30125
 623.9	30227
 624.4	30247
 625.0	30274
 625.5	30292
 626.0	30320
 626.6	30388
 627.1	30363
 627.6	30326
 628.2	30296
 628.7	30334
 629.2	30311
 629.8	30314
 630.3	30301
 630.8	30261
 631.4	30197
 631.9	30181
 632.4	30041
 632.9	30004
 633.5	29962
 634.0	29879
 634.5	29886
 635.1	29791
 635.6	29741
 636.1	29669
 636.7	29643
 637.2	29602
 637.7	29464
 638.3	29523
 638.8	29474
 639.3	29449
 639.8	29353
 640.4	29349
 640.9	29339
 641.4	29239
 642.0	29189
 642.5	29189
 643.0	29154
 643.6	29228
 644.1	29170
 644.6	29186
 645.1	29194
 645.7	29195
 646.2	29145
 646.7	29168
 647.3	29196
 647.8	29216
 648.3	29202
 648.9	29267
 649.4	29194
 649.9	29286
 650.4	29315
 651.0	29384
 651.5	29417
 652.0	29491
 652.6	29473
 653.1	29585
 653.6	29538
 654.1	29622
 654.7	29623
 655.2	29737
 655.7	29805
 656.3	29839
 656.8	29829
 657.3	29917
 657.8	29905
 658.4	29938
 658.9	29989
 659.4	30073
 659.9	30098
 660.5	30092
 661.0	30150
 661.5	30208
 662.1	30188
 662.6	30217
 663.1	30191
 663.6	30284
 664.2	30246
 664.7	30223
 665.2	30171
 665.7	30274
 666.3	30239
 666.8	30234
 667.3	30230
 667.8	30202
 668.4	30219
 668.9	30222
 669.4	30175
 669.9	30187
 670.5	30118
 671.0	30124
 671.5	30070
 672.0	30097
 672.6	30087
 673.1	30104
 673.6	30007
 674.1	30017
 674.7	29995
 675.2	30020
 675.7	29882
 676.2	29864
 676.8	29912
 677.3	29907
 677.8	29823
 678.3	29907
 678.9	29832
 679.4	29750
 679.9	29804
 680.4	29784
 681.0	29740
 681.5	29754
 682.0	29697
 682.5	29727
 683.1	29627
 683.6	29645
 684.1	29583
 684.6	29670
 685.1	29615
 685.7	29617
 686.2	29587
 686.7	29543
 687.2	29532
 687.8	29588
 688.3	29535
 688.8	29544
 689.3	29489
 689.8	29519
 690.4	29508
 690.9	29523
 691.4	29538
 691.9	29543
 692.4	29523
 693.0	29582
 693.5	29549
 694.0	29541
 694.5	29539
 695.1	29514
 695.6	29480
 696.1	29550
 696.6	29536
 697.1	29552
 697.7	29583
 698.2	29510
 698.7	29542
 699.2	29508
 699.7	29517
 700.3	29466
 700.8	29447
 701.3	29521
 701.8	29479
 702.3	29421
 702.8	29411
 703.4	29393
 703.9	29370
 704.4	29332
 704.9	29295
 705.4	29277
 706.0	29331
 706.5	29298
 707.0	29206
 707.5	29169
 708.0	29177
 708.5	29113
 709.1	29151
 709.6	29098
 710.1	29045
 710.6	29008
 711.1	28982
 711.7	28977
 712.2	28946
 712.7	28955
 713.2	28911
 713.7	28900
 714.2	28847
 714.8	28922
 715.3	28855
 715.8	28851
 716.3	28847
 716.8	28782
 717.3	28763
 717.8	28854
 718.4	28871
 718.9	28803
 719.4	28887
 719.9	28799
 720.4	28850
 720.9	28871
 721.4	28856
 722.0	28879
 722.5	28878
 723.0	28879
 723.5	28891
 724.0	28871
 724.5	28864
 725.0	28902
 725.6	28841
 726.1	28903
 726.6	29009
 727.1	28954
 727.6	28995
 728.1	29021
 728.6	28983
 729.1	28983
 729.7	28962
 730.2	28993
 730.7	29023
 731.2	29058
 731.7	29038
 732.2	29057
 732.7	29027
 733.2	29063
 733.8	29040
 734.3	29073
 734.8	29058
 735.3	29092
 735.8	29093
 736.3	29087
 736.8	29135
 737.3	29191
 737.8	29147
 738.4	29154
 738.9	29123
 739.4	29213
 739.9	29194
 740.4	29220
 740.9	29198
 741.4	29198
 741.9	29188
 742.4	29213
 742.9	29190
 743.4	29252
 744.0	29159
 744.5	29147
 745.0	29149
 745.5	29210
 746.0	29167
 746.5	29164
 747.0	29098
 747.5	29065
 748.0	29033
 748.5	29038
 749.0	29031
 749.5	29087
 750.0	28919
 750.5	28944
 751.1	28919
 751.6	28906
 752.1	28858
 752.6	28808
 753.1	28831
 753.6	28746
 754.1	28698
 754.6	28697
 755.1	28623
 755.6	28606
 756.1	28501
 756.6	28559
 757.1	28504
 757.6	28454
 758.1	28388
 758.6	28360
 759.1	28255
 759.6	28262
 760.1	28182
 760.7	28106
 761.2	28156
 761.7	28076
 762.2	28028
 762.7	28033
 763.2	27892
 763.7	27932
 764.2	27831
 764.7	27800
 765.2	27789
 765.7	27717
 766.2	27647
 766.7	27643
 767.2	27555
 767.7	27519
 768.2	27466
 768.7	27396
 769.2	27346
 769.7	27354
 770.2	27302
 770.7	27277
 771.2	27222
 771.7	27180
 772.2	27159
 772.7	27183
 773.2	27136
 773.7	27071
 774.2	26996
 774.7	27019
 775.2	26975
 775.7	26942
 776.2	26911
 776.7	26925
 777.2	26840
 777.7	26885
 778.2	26853
 778.7	26882
 779.2	26872
 779.7	26883
 780.2	26725
 780.7	26766
 781.2	26763
 781.7	26803
 782.2	26722
 782.6	26778
 783.1	26767
 783.6	26736
 784.1	26684
 784.6	26661
 785.1	26671
 785.6	26660
 786.1	26668
 786.6	26675
 787.1	26606
 787.6	26599
 788.1	26575
 788.6	26558
 789.1	26535
 789.6	26538
 790.1	26540
 790.6	26518
 791.1	26417
 791.6	26401
 792.0	26386
 792.5	26393
 793.0	26350
 793.5	26325
 794.0	26246
 794.5	26297
 795.0	26244
 795.5	26206
 796.0	26175
 796.5	26102
 797.0	26090
 797.5	26095
 798.0	25915
 798.4	25917
 798.9	25870
 799.4	25845
 799.9	25810
 800.4	25649
 800.9	25699
 801.4	25704
 801.9	25621
 802.4	25509
 802.9	25521
 803.3	25476
 803.8	25399
 804.3	25308
 804.8	25317
 805.3	25235
 805.8	25165
 806.3	25118
 806.8	25059
 807.2	25011
 807.7	24949
 808.2	24917
 808.7	24805
 809.2	24778
 809.7	24662
 810.2	24687
 810.7	24589
 811.1	24554
 811.6	24513
 812.1	24430
 812.6	24358
 813.1	24362
 813.6	24345
 814.1	24289
 814.5	24218
 815.0	24199
 815.5	24121
 816.0	24052
 816.5	24074
 817.0	23993
 817.4	23949
 817.9	23953
 818.4	23851
 818.9	23906
 819.4	23828
 819.9	23781
 820.3	23733
 820.8	23701
 821.3	23679
 821.8	23650
 822.3	23580
 822.7	23545
 823.2	23575
 823.7	23513
 824.2	23486
 824.7	23447
 825.2	23443
 825.6	23397
 826.1	23368
 826.6	23409
 827.1	23369
 827.6	23350
 828.0	23270
 828.5	23230
 829.0	23245
 829.5	23180
 829.9	23164
 830.4	23202
 830.9	23169
 831.4	23179
 831.9	23122
 832.3	23177
 832.8	23107
 833.3	23101
 833.8	23160
 834.2	23137
 834.7	22977
 835.2	23058
 835.7	23049
 836.1	23023
 836.6	22994
 837.1	22987
 837.6	22981
 838.0	23000
 838.5	23007
 839.0	23001
 839.5	22989
 839.9	22905
 840.4	22903
 840.9	22862
 841.4	22881
 841.8	22889
 842.3	22892
 842.8	22895
 843.3	22879
 843.7	22777
 844.2	22756
 844.7	22821
 845.1	22789
 845.6	22703
 846.1	22708
 846.6	22731
 847.0	22624
 847.5	22660
 848.0	22628
 848.4	22648
 848.9	22594
 849.4	22563
 849.8	22565
 850.3	22554
 850.8	22578
 851.3	22524
 851.7	22503
 852.2	22492
 852.7	22473
 853.1	22434
 853.6	22365
 854.1	22390
 854.5	22342
 855.0	22314
 855.5	22289
 855.9	22325
 856.4	22290
 856.9	22201
 857.3	22226
 857.8	22171
 858.3	22182
 858.7	22111
 859.2	22120
 859.7	22117
 860.1	22153
 860.6	22116
 861.1	22034
 861.5	22058
 862.0	22047
 862.4	21996
 862.9	21945
 863.4	21970
 863.8	21952
 864.3	21932
 864.8	21839
 865.2	21861
 865.7	21875
 866.1	21871
 866.6	21773
 867.1	21837
 867.5	21807
 868.0	21772
 868.5	21711
 868.9	21693
 869.4	21778
 869.8	21722
 870.3	21663
 870.8	21721
 871.2	21661
 871.7	21650
 872.1	21576
 872.6	21617
 873.0	21572
 873.5	21625
 874.0	21598
 874.4	21469
 874.9	21478
 875.3	21415
 875.8	21295
 876.2	21089
 876.7	20922
 877.2	20587
 877.6	20168
 878.1	19730
