#xlabel Wavelength (nm)
#ylabel Spectrometer Array Counts
#title Exposure time is 9300 ms
## lambda	counts
 349.8	16735
 350.3	16998
 350.8	17246
 351.3	17431
 351.9	17531
 352.4	17631
 352.9	17702
 353.4	17655
 354.0	17653
 354.5	17684
 355.0	17687
 355.5	17697
 356.0	17657
 356.6	17623
 357.1	17665
 357.6	17649
 358.1	17674
 358.7	17613
 359.2	17631
 359.7	17644
 360.2	17679
 360.8	17641
 361.3	17737
 361.8	17681
 362.3	17705
 362.9	17666
 363.4	17732
 363.9	17737
 364.4	17758
 364.9	17672
 365.5	17739
 366.0	17723
 366.5	17675
 367.0	17717
 367.6	17738
 368.1	17732
 368.6	17673
 369.1	17722
 369.7	17771
 370.2	17699
 370.7	17689
 371.2	17737
 371.8	17777
 372.3	17707
 372.8	17771
 373.3	17785
 373.9	17736
 374.4	17741
 374.9	17786
 375.5	17683
 376.0	17797
 376.5	17763
 377.0	17783
 377.6	17729
 378.1	17787
 378.6	17733
 379.1	17735
 379.7	17718
 380.2	17779
 380.7	17776
 381.2	17729
 381.8	17719
 382.3	17759
 382.8	17734
 383.4	17772
 383.9	17727
 384.4	17868
 384.9	17782
 385.5	17795
 386.0	17796
 386.5	17861
 387.1	17793
 387.6	17806
 388.1	17809
 388.6	17818
 389.2	17806
 389.7	17825
 390.2	17801
 390.8	17879
 391.3	17841
 391.8	17833
 392.3	17820
 392.9	17809
 393.4	17800
 393.9	17862
 394.5	17863
 395.0	17809
 395.5	17827
 396.0	17824
 396.6	17791
 397.1	17873
 397.6	17866
 398.2	17868
 398.7	17864
 399.2	17950
 399.8	17827
 400.3	17887
 400.8	17930
 401.3	17905
 401.9	17918
 402.4	17929
 402.9	17911
 403.5	17937
 404.0	17918
 404.5	17867
 405.1	17873
 405.6	17964
 406.1	17926
 406.7	17930
 407.2	17935
 407.7	18007
 408.2	17993
 408.8	17991
 409.3	18019
 409.8	18052
 410.4	18009
 410.9	18011
 411.4	17966
 412.0	18016
 412.5	18063
 413.0	18016
 413.6	18047
 414.1	18011
 414.6	18035
 415.2	18070
 415.7	18008
 416.2	18057
 416.8	18028
 417.3	18017
 417.8	18031
 418.4	18112
 418.9	18047
 419.4	18173
 420.0	18056
 420.5	18115
 421.0	18063
 421.5	18139
 422.1	18115
 422.6	18159
 423.1	18178
 423.7	18150
 424.2	18133
 424.7	18167
 425.3	18138
 425.8	18151
 426.3	18141
 426.9	18195
 427.4	18136
 427.9	18238
 428.5	18175
 429.0	18214
 429.6	18165
 430.1	18239
 430.6	18232
 431.2	18166
 431.7	18257
 432.2	18217
 432.8	18193
 433.3	18286
 433.8	18284
 434.4	18250
 434.9	18263
 435.4	18298
 436.0	18277
 436.5	18267
 437.0	18337
 437.6	18305
 438.1	18355
 438.6	18353
 439.2	18378
 439.7	18367
 440.2	18311
 440.8	18334
 441.3	18339
 441.8	18345
 442.4	18311
 442.9	18335
 443.5	18375
 444.0	18356
 444.5	18381
 445.1	18305
 445.6	18338
 446.1	18348
 446.7	18359
 447.2	18381
 447.7	18363
 448.3	18424
 448.8	18381
 449.3	18409
 449.9	18354
 450.4	18449
 450.9	18480
 451.5	18473
 452.0	18442
 452.6	18456
 453.1	18499
 453.6	18507
 454.2	18400
 454.7	18465
 455.2	18482
 455.8	18523
 456.3	18458
 456.8	18581
 457.4	18507
 457.9	18517
 458.5	18557
 459.0	18513
 459.5	18550
 460.1	18501
 460.6	18543
 461.1	18535
 461.7	18581
 462.2	18534
 462.7	18573
 463.3	18504
 463.8	18568
 464.4	18632
 464.9	18573
 465.4	18635
 466.0	18536
 466.5	18605
 467.0	18537
 467.6	18600
 468.1	18681
 468.7	18605
 469.2	18545
 469.7	18625
 470.3	18608
 470.8	18641
 471.3	18618
 471.9	18573
 472.4	18622
 473.0	18657
 473.5	18674
 474.0	18661
 474.6	18663
 475.1	18651
 475.6	18724
 476.2	18733
 476.7	18706
 477.3	18761
 477.8	18700
 478.3	18635
 478.9	18820
 479.4	18709
 479.9	18724
 480.5	18706
 481.0	18725
 481.6	18747
 482.1	18799
 482.6	18785
 483.2	18786
 483.7	18892
 484.2	18819
 484.8	18672
 485.3	18767
 485.9	18838
 486.4	18792
 486.9	18811
 487.5	18775
 488.0	18783
 488.6	18833
 489.1	18844
 489.6	18893
 490.2	18882
 490.7	18846
 491.2	18817
 491.8	18859
 492.3	18817
 492.9	18865
 493.4	18873
 493.9	18884
 494.5	18890
 495.0	18953
 495.6	18873
 496.1	18884
 496.6	18939
 497.2	18861
 497.7	18823
 498.2	18909
 498.8	18931
 499.3	18846
 499.9	18903
 500.4	18891
 500.9	18882
 501.5	18869
 502.0	18936
 502.6	18911
 503.1	18991
 503.6	18961
 504.2	18907
 504.7	18914
 505.2	18977
 505.8	18969
 506.3	19036
 506.9	19044
 507.4	19013
 507.9	18990
 508.5	19018
 509.0	19057
 509.6	19111
 510.1	19084
 510.6	19121
 511.2	19144
 511.7	19118
 512.2	19181
 512.8	19205
 513.3	19167
 513.9	19160
 514.4	19217
 514.9	19276
 515.5	19180
 516.0	19257
 516.6	19231
 517.1	19282
 517.6	19257
 518.2	19235
 518.7	19174
 519.3	19223
 519.8	19269
 520.3	19261
 520.9	19217
 521.4	19220
 521.9	19271
 522.5	19202
 523.0	19219
 523.6	19262
 524.1	19115
 524.6	19172
 525.2	19191
 525.7	19224
 526.3	19148
 526.8	19229
 527.3	19184
 527.9	19211
 528.4	19191
 528.9	19248
 529.5	19258
 530.0	19245
 530.6	19285
 531.1	19291
 531.6	19216
 532.2	19324
 532.7	19284
 533.3	19318
 533.8	19438
 534.3	19463
 534.9	19461
 535.4	19408
 536.0	19477
 536.5	19519
 537.0	19483
 537.6	19505
 538.1	19551
 538.6	19573
 539.2	19512
 539.7	19531
 540.3	19627
 540.8	19585
 541.3	19549
 541.9	19581
 542.4	19582
 543.0	19642
 543.5	19601
 544.0	19581
 544.6	19625
 545.1	19632
 545.6	19673
 546.2	19654
 546.7	19573
 547.3	19629
 547.8	19601
 548.3	19651
 548.9	19575
 549.4	19574
 550.0	19537
 550.5	19601
 551.0	19644
 551.6	19596
 552.1	19611
 552.6	19613
 553.2	19597
 553.7	19570
 554.3	19598
 554.8	19666
 555.3	19531
 555.9	19598
 556.4	19560
 556.9	19653
 557.5	19675
 558.0	19631
 558.6	19608
 559.1	19679
 559.6	19664
 560.2	19661
 560.7	19655
 561.3	19640
 561.8	19617
 562.3	19726
 562.9	19713
 563.4	19738
 563.9	19731
 564.5	19735
 565.0	19719
 565.6	19743
 566.1	19733
 566.6	19740
 567.2	19730
 567.7	19830
 568.2	19735
 568.8	19751
 569.3	19722
 569.9	19791
 570.4	19773
 570.9	19750
 571.5	19743
 572.0	19737
 572.5	19789
 573.1	19743
 573.6	19782
 574.1	19777
 574.7	19777
 575.2	19750
 575.8	19771
 576.3	19854
 576.8	19818
 577.4	19829
 577.9	19843
 578.4	19801
 579.0	19816
 579.5	19907
 580.1	19832
 580.6	19836
 581.1	19913
 581.7	19931
 582.2	19861
 582.7	19911
 583.3	19955
 583.8	19922
 584.3	19869
 584.9	19929
 585.4	19927
 586.0	19902
 586.5	19940
 587.0	19899
 587.6	19969
 588.1	19921
 588.6	19990
 589.2	19937
 589.7	19947
 590.2	19935
 590.8	19929
 591.3	19955
 591.9	19903
 592.4	19961
 592.9	19901
 593.5	19893
 594.0	19891
 594.5	19903
 595.1	19884
 595.6	19862
 596.1	19920
 596.7	19877
 597.2	19915
 597.7	19857
 598.3	19867
 598.8	19839
 599.3	19851
 599.9	19833
 600.4	19829
 601.0	19834
 601.5	19818
 602.0	19811
 602.6	19761
 603.1	19777
 603.6	19777
 604.2	19875
 604.7	19785
 605.2	19844
 605.8	19766
 606.3	19784
 606.8	19855
 607.4	19834
 607.9	19862
 608.4	19813
 609.0	19842
 609.5	19885
 610.0	19853
 610.6	19947
 611.1	19871
 611.6	19890
 612.2	19888
 612.7	19955
 613.2	19932
 613.8	19871
 614.3	19901
 614.8	19946
 615.4	19879
 615.9	19962
 616.4	20015
 617.0	19968
 617.5	20054
 618.0	20065
 618.6	19991
 619.1	20028
 619.6	20100
 620.2	20088
 620.7	20142
 621.2	20099
 621.8	20147
 622.3	20172
 622.8	20127
 623.4	20160
 623.9	20217
 624.4	20191
 625.0	20189
 625.5	20193
 626.0	20203
 626.6	20244
 627.1	20239
 627.6	20190
 628.2	20157
 628.7	20194
 629.2	20171
 629.8	20206
 630.3	20213
 630.8	20197
 631.4	20177
 631.9	20202
 632.4	20099
 632.9	20118
 633.5	20116
 634.0	20079
 634.5	20162
 635.1	20091
 635.6	20065
 636.1	20053
 636.7	20108
 637.2	20095
 637.7	20011
 638.3	20101
 638.8	20099
 639.3	20103
 639.8	20060
 640.4	20077
 640.9	20095
 641.4	20010
 642.0	20005
 642.5	20025
 643.0	19998
 643.6	20071
 644.1	20031
 644.6	20041
 645.1	20081
 645.7	20050
 646.2	20019
 646.7	20035
 647.3	20071
 647.8	20063
 648.3	20047
 648.9	20075
 649.4	20002
 649.9	20064
 650.4	20068
 651.0	20110
 651.5	20119
 652.0	20171
 652.6	20119
 653.1	20185
 653.6	20107
 654.1	20180
 654.7	20129
 655.2	20204
 655.7	20242
 656.3	20257
 656.8	20199
 657.3	20251
 657.8	20202
 658.4	20194
 658.9	20196
 659.4	20280
 659.9	20275
 660.5	20250
 661.0	20291
 661.5	20334
 662.1	20293
 662.6	20299
 663.1	20260
 663.6	20340
 664.2	20299
 664.7	20271
 665.2	20198
 665.7	20311
 666.3	20287
 666.8	20291
 667.3	20293
 667.8	20254
 668.4	20289
 668.9	20291
 669.4	20272
 669.9	20308
 670.5	20244
 671.0	20260
 671.5	20215
 672.0	20274
 672.6	20281
 673.1	20302
 673.6	20218
 674.1	20259
 674.7	20239
 675.2	20296
 675.7	20153
 676.2	20173
 676.8	20224
 677.3	20241
 677.8	20171
 678.3	20279
 678.9	20214
 679.4	20162
 679.9	20222
 680.4	20236
 681.0	20204
 681.5	20231
 682.0	20205
 682.5	20233
 683.1	20151
 683.6	20206
 684.1	20144
 684.6	20243
 685.1	20183
 685.7	20209
 686.2	20174
 686.7	20145
 687.2	20133
 687.8	20201
 688.3	20141
 688.8	20171
 689.3	20117
 689.8	20140
 690.4	20143
 690.9	20149
 691.4	20147
 691.9	20173
 692.4	20125
 693.0	20197
 693.5	20169
 694.0	20146
 694.5	20143
 695.1	20125
 695.6	20096
 696.1	20155
 696.6	20142
 697.1	20162
 697.7	20186
 698.2	20122
 698.7	20143
 699.2	20103
 699.7	20109
 700.3	20092
 700.8	20068
 701.3	20180
 701.8	20139
 702.3	20084
 702.8	20098
 703.4	20063
 703.9	20079
 704.4	20075
 704.9	20042
 705.4	20050
 706.0	20146
 706.5	20138
 707.0	20049
 707.5	20039
 708.0	20071
 708.5	20028
 709.1	20090
 709.6	20065
 710.1	20031
 710.6	20009
 711.1	20015
 711.7	20039
 712.2	20039
 712.7	20044
 713.2	20029
 713.7	20036
 714.2	19997
 714.8	20070
 715.3	20025
 715.8	20031
 716.3	20035
 716.8	19955
 717.3	19941
 717.8	20045
 718.4	20060
 718.9	19997
 719.4	20073
 719.9	19995
 720.4	20031
 720.9	20035
 721.4	20034
 722.0	20055
 722.5	20039
 723.0	20028
 723.5	20035
 724.0	20001
 724.5	19996
 725.0	20013
 725.6	19947
 726.1	19997
 726.6	20107
 727.1	20049
 727.6	20086
 728.1	20102
 728.6	20060
 729.1	20044
 729.7	20036
 730.2	20065
 730.7	20099
 731.2	20126
 731.7	20110
 732.2	20112
 732.7	20093
 733.2	20141
 733.8	20117
 734.3	20133
 734.8	20106
 735.3	20122
 735.8	20106
 736.3	20081
 736.8	20111
 737.3	20145
 737.8	20103
 738.4	20095
 738.9	20052
 739.4	20133
 739.9	20121
 740.4	20119
 740.9	20115
 741.4	20108
 741.9	20100
 742.4	20123
 742.9	20107
 743.4	20189
 744.0	20106
 744.5	20103
 745.0	20113
 745.5	20193
 746.0	20166
 746.5	20172
 747.0	20121
 747.5	20113
 748.0	20079
 748.5	20100
 749.0	20115
 749.5	20195
 750.0	20043
 750.5	20103
 751.1	20109
 751.6	20107
 752.1	20097
 752.6	20069
 753.1	20100
 753.6	20041
 754.1	20009
 754.6	20059
 755.1	20017
 755.6	20028
 756.1	19956
 756.6	20049
 757.1	20017
 757.6	20005
 758.1	19978
 758.6	19994
 759.1	19929
 759.6	19958
 760.1	19908
 760.7	19881
 761.2	19958
 761.7	19897
 762.2	19884
 762.7	19939
 763.2	19807
 763.7	19890
 764.2	19827
 764.7	19837
 765.2	19865
 765.7	19835
 766.2	19799
 766.7	19846
 767.2	19799
 767.7	19811
 768.2	19791
 768.7	19761
 769.2	19753
 769.7	19800
 770.2	19773
 770.7	19775
 771.2	19758
 771.7	19737
 772.2	19743
 772.7	19789
 773.2	19773
 773.7	19730
 774.2	19675
 774.7	19722
 775.2	19725
 775.7	19693
 776.2	19692
 776.7	19715
 777.2	19647
 777.7	19721
 778.2	19702
 778.7	19739
 779.2	19755
 779.7	19781
 780.2	19628
 780.7	19705
 781.2	19710
 781.7	19775
 782.2	19694
 782.6	19764
 783.1	19772
 783.6	19733
 784.1	19709
 784.6	19700
 785.1	19711
 785.6	19699
 786.1	19735
 786.6	19751
 787.1	19697
 787.6	19696
 788.1	19691
 788.6	19685
 789.1	19681
 789.6	19720
 790.1	19734
 790.6	19731
 791.1	19644
 791.6	19647
 792.0	19667
 792.5	19709
 793.0	19688
 793.5	19683
 794.0	19623
 794.5	19705
 795.0	19698
 795.5	19671
 796.0	19681
 796.5	19636
 797.0	19659
 797.5	19701
 798.0	19565
 798.4	19604
 798.9	19593
 799.4	19615
 799.9	19619
 800.4	19494
 800.9	19583
 801.4	19654
 801.9	19610
 802.4	19553
 802.9	19617
 803.3	19610
 803.8	19576
 804.3	19529
 804.8	19592
 805.3	19547
 805.8	19529
 806.3	19537
 806.8	19517
 807.2	19511
 807.7	19488
 808.2	19515
 808.7	19446
 809.2	19450
 809.7	19395
 810.2	19459
 810.7	19398
 811.1	19411
 811.6	19415
 812.1	19375
 812.6	19339
 813.1	19383
 813.6	19401
 814.1	19379
 814.5	19342
 815.0	19358
 815.5	19326
 816.0	19289
 816.5	19353
 817.0	19305
 817.4	19283
 817.9	19322
 818.4	19262
 818.9	19336
 819.4	19294
 819.9	19278
 820.3	19246
 820.8	19253
 821.3	19249
 821.8	19254
 822.3	19219
 822.7	19204
 823.2	19253
 823.7	19210
 824.2	19209
 824.7	19189
 825.2	19213
 825.6	19196
 826.1	19185
 826.6	19231
 827.1	19225
 827.6	19215
 828.0	19159
 828.5	19127
 829.0	19171
 829.5	19111
 829.9	19123
 830.4	19171
 830.9	19158
 831.4	19186
 831.9	19149
 832.3	19225
 832.8	19178
 833.3	19166
 833.8	19246
 834.2	19237
 834.7	19093
 835.2	19183
 835.7	19185
 836.1	19173
 836.6	19159
 837.1	19165
 837.6	19173
 838.0	19206
 838.5	19230
 839.0	19235
 839.5	19222
 839.9	19147
 840.4	19152
 840.9	19125
 841.4	19160
 841.8	19175
 842.3	19193
 842.8	19212
 843.3	19211
 843.7	19114
 844.2	19101
 844.7	19195
 845.1	19167
 845.6	19089
 846.1	19107
 846.6	19142
 847.0	19048
 847.5	19092
 848.0	19080
 848.4	19115
 848.9	19090
 849.4	19072
 849.8	19091
 850.3	19090
 850.8	19140
 851.3	19103
 851.7	19097
 852.2	19108
 852.7	19095
 853.1	19076
 853.6	19030
 854.1	19069
 854.5	19042
 855.0	19023
 855.5	19019
 855.9	19080
 856.4	19074
 856.9	18989
 857.3	19038
 857.8	19017
 858.3	19059
 858.7	19015
 859.2	19029
 859.7	19025
 860.1	19079
 860.6	19059
 861.1	19005
 861.5	19045
 862.0	19058
 862.4	19027
 862.9	18993
 863.4	19035
 863.8	19037
 864.3	19039
 864.8	18953
 865.2	19008
 865.7	19029
 866.1	19037
 866.6	18966
 867.1	19035
 867.5	19017
 868.0	19000
 868.5	18949
 868.9	18959
 869.4	19058
 869.8	19011
 870.3	18963
 870.8	19032
 871.2	18981
 871.7	18974
 872.1	18919
 872.6	18972
 873.0	18956
 873.5	19037
 874.0	19034
 874.4	18941
 874.9	18992
 875.3	18979
 875.8	18907
 876.2	18732
 876.7	18597
 877.2	18283
 877.6	17878
 878.1	17482
