#xlabel Wavelength (nm)
#ylabel Spectrometer Array Counts
#title Exposure time is 9300 ms
## lambda	counts
 349.8	16684
 350.3	16924
 350.8	17151
 351.3	17323
 351.9	17422
 352.4	17531
 352.9	17612
 353.4	17588
 354.0	17598
 354.5	17650
 355.0	17658
 355.5	17679
 356.0	17642
 356.6	17614
 357.1	17658
 357.6	17642
 358.1	17668
 358.7	17604
 359.2	17620
 359.7	17634
 360.2	17661
 360.8	17626
 361.3	17717
 361.8	17661
 362.3	17687
 362.9	17647
 363.4	17714
 363.9	17709
 364.4	17735
 364.9	17652
 365.5	17719
 366.0	17695
 366.5	17650
 367.0	17698
 367.6	17719
 368.1	17716
 368.6	17647
 369.1	17705
 369.7	17749
 370.2	17673
 370.7	17671
 371.2	17717
 371.8	17758
 372.3	17683
 372.8	17749
 373.3	17763
 373.9	17711
 374.4	17723
 374.9	17763
 375.5	17660
 376.0	17775
 376.5	17739
 377.0	17756
 377.6	17701
 378.1	17773
 378.6	17709
 379.1	17709
 379.7	17695
 380.2	17754
 380.7	17754
 381.2	17711
 381.8	17698
 382.3	17735
 382.8	17713
 383.4	17756
 383.9	17711
 384.4	17852
 384.9	17761
 385.5	17781
 386.0	17773
 386.5	17842
 387.1	17771
 387.6	17783
 388.1	17789
 388.6	17801
 389.2	17781
 389.7	17805
 390.2	17777
 390.8	17858
 391.3	17819
 391.8	17816
 392.3	17800
 392.9	17795
 393.4	17779
 393.9	17846
 394.5	17839
 395.0	17782
 395.5	17806
 396.0	17800
 396.6	17770
 397.1	17851
 397.6	17847
 398.2	17843
 398.7	17843
 399.2	17929
 399.8	17805
 400.3	17866
 400.8	17904
 401.3	17883
 401.9	17893
 402.4	17907
 402.9	17891
 403.5	17915
 404.0	17899
 404.5	17850
 405.1	17847
 405.6	17938
 406.1	17909
 406.7	17912
 407.2	17910
 407.7	17990
 408.2	17967
 408.8	17974
 409.3	17996
 409.8	18034
 410.4	17995
 410.9	17989
 411.4	17946
 412.0	17995
 412.5	18043
 413.0	17989
 413.6	18026
 414.1	17988
 414.6	18014
 415.2	18051
 415.7	17984
 416.2	18033
 416.8	18010
 417.3	17990
 417.8	18011
 418.4	18092
 418.9	18029
 419.4	18156
 420.0	18040
 420.5	18093
 421.0	18038
 421.5	18115
 422.1	18093
 422.6	18139
 423.1	18159
 423.7	18131
 424.2	18110
 424.7	18147
 425.3	18117
 425.8	18132
 426.3	18127
 426.9	18177
 427.4	18109
 427.9	18217
 428.5	18159
 429.0	18189
 429.6	18145
 430.1	18216
 430.6	18212
 431.2	18149
 431.7	18236
 432.2	18196
 432.8	18172
 433.3	18269
 433.8	18261
 434.4	18230
 434.9	18242
 435.4	18280
 436.0	18257
 436.5	18249
 437.0	18314
 437.6	18285
 438.1	18330
 438.6	18335
 439.2	18360
 439.7	18345
 440.2	18293
 440.8	18321
 441.3	18321
 441.8	18325
 442.4	18285
 442.9	18318
 443.5	18351
 444.0	18338
 444.5	18360
 445.1	18287
 445.6	18316
 446.1	18326
 446.7	18341
 447.2	18357
 447.7	18347
 448.3	18399
 448.8	18361
 449.3	18394
 449.9	18334
 450.4	18425
 450.9	18457
 451.5	18453
 452.0	18417
 452.6	18438
 453.1	18481
 453.6	18491
 454.2	18379
 454.7	18445
 455.2	18459
 455.8	18504
 456.3	18441
 456.8	18561
 457.4	18481
 457.9	18494
 458.5	18539
 459.0	18497
 459.5	18531
 460.1	18486
 460.6	18531
 461.1	18514
 461.7	18559
 462.2	18515
 462.7	18551
 463.3	18479
 463.8	18553
 464.4	18608
 464.9	18554
 465.4	18609
 466.0	18513
 466.5	18581
 467.0	18519
 467.6	18579
 468.1	18661
 468.7	18589
 469.2	18530
 469.7	18607
 470.3	18591
 470.8	18619
 471.3	18601
 471.9	18552
 472.4	18600
 473.0	18638
 473.5	18648
 474.0	18645
 474.6	18648
 475.1	18635
 475.6	18697
 476.2	18713
 476.7	18686
 477.3	18744
 477.8	18676
 478.3	18615
 478.9	18803
 479.4	18691
 479.9	18705
 480.5	18681
 481.0	18703
 481.6	18729
 482.1	18782
 482.6	18762
 483.2	18765
 483.7	18876
 484.2	18807
 484.8	18653
 485.3	18746
 485.9	18818
 486.4	18774
 486.9	18790
 487.5	18759
 488.0	18761
 488.6	18812
 489.1	18822
 489.6	18873
 490.2	18861
 490.7	18823
 491.2	18794
 491.8	18841
 492.3	18795
 492.9	18840
 493.4	18857
 493.9	18867
 494.5	18869
 495.0	18935
 495.6	18853
 496.1	18869
 496.6	18920
 497.2	18839
 497.7	18805
 498.2	18894
 498.8	18911
 499.3	18824
 499.9	18885
 500.4	18877
 500.9	18862
 501.5	18851
 502.0	18920
 502.6	18892
 503.1	18971
 503.6	18939
 504.2	18894
 504.7	18894
 505.2	18956
 505.8	18955
 506.3	19020
 506.9	19023
 507.4	18991
 507.9	18966
 508.5	18995
 509.0	19038
 509.6	19090
 510.1	19064
 510.6	19101
 511.2	19123
 511.7	19101
 512.2	19163
 512.8	19183
 513.3	19148
 513.9	19141
 514.4	19196
 514.9	19258
 515.5	19166
 516.0	19237
 516.6	19213
 517.1	19254
 517.6	19237
 518.2	19217
 518.7	19156
 519.3	19208
 519.8	19247
 520.3	19247
 520.9	19196
 521.4	19200
 521.9	19257
 522.5	19179
 523.0	19207
 523.6	19241
 524.1	19102
 524.6	19147
 525.2	19175
 525.7	19204
 526.3	19123
 526.8	19210
 527.3	19161
 527.9	19189
 528.4	19167
 528.9	19223
 529.5	19242
 530.0	19220
 530.6	19267
 531.1	19270
 531.6	19196
 532.2	19307
 532.7	19260
 533.3	19297
 533.8	19419
 534.3	19445
 534.9	19441
 535.4	19389
 536.0	19458
 536.5	19503
 537.0	19462
 537.6	19486
 538.1	19532
 538.6	19551
 539.2	19499
 539.7	19511
 540.3	19612
 540.8	19566
 541.3	19533
 541.9	19565
 542.4	19567
 543.0	19623
 543.5	19581
 544.0	19562
 544.6	19608
 545.1	19616
 545.6	19648
 546.2	19634
 546.7	19556
 547.3	19607
 547.8	19581
 548.3	19628
 548.9	19555
 549.4	19558
 550.0	19522
 550.5	19586
 551.0	19626
 551.6	19576
 552.1	19594
 552.6	19589
 553.2	19574
 553.7	19539
 554.3	19583
 554.8	19647
 555.3	19511
 555.9	19575
 556.4	19540
 556.9	19629
 557.5	19657
 558.0	19611
 558.6	19590
 559.1	19657
 559.6	19642
 560.2	19639
 560.7	19645
 561.3	19617
 561.8	19596
 562.3	19703
 562.9	19686
 563.4	19721
 563.9	19711
 564.5	19713
 565.0	19703
 565.6	19717
 566.1	19716
 566.6	19719
 567.2	19711
 567.7	19810
 568.2	19720
 568.8	19735
 569.3	19703
 569.9	19774
 570.4	19762
 570.9	19730
 571.5	19723
 572.0	19721
 572.5	19775
 573.1	19718
 573.6	19766
 574.1	19752
 574.7	19757
 575.2	19724
 575.8	19757
 576.3	19832
 576.8	19797
 577.4	19803
 577.9	19826
 578.4	19785
 579.0	19792
 579.5	19879
 580.1	19819
 580.6	19823
 581.1	19896
 581.7	19909
 582.2	19845
 582.7	19888
 583.3	19933
 583.8	19901
 584.3	19854
 584.9	19907
 585.4	19914
 586.0	19884
 586.5	19919
 587.0	19877
 587.6	19949
 588.1	19901
 588.6	19969
 589.2	19922
 589.7	19933
 590.2	19914
 590.8	19915
 591.3	19938
 591.9	19884
 592.4	19945
 592.9	19885
 593.5	19874
 594.0	19868
 594.5	19882
 595.1	19869
 595.6	19844
 596.1	19901
 596.7	19860
 597.2	19900
 597.7	19841
 598.3	19853
 598.8	19825
 599.3	19830
 599.9	19813
 600.4	19806
 601.0	19819
 601.5	19800
 602.0	19788
 602.6	19741
 603.1	19759
 603.6	19759
 604.2	19854
 604.7	19759
 605.2	19827
 605.8	19747
 606.3	19764
 606.8	19837
 607.4	19809
 607.9	19842
 608.4	19799
 609.0	19825
 609.5	19863
 610.0	19835
 610.6	19929
 611.1	19855
 611.6	19871
 612.2	19871
 612.7	19927
 613.2	19920
 613.8	19849
 614.3	19882
 614.8	19931
 615.4	19863
 615.9	19945
 616.4	19994
 617.0	19946
 617.5	20038
 618.0	20045
 618.6	19971
 619.1	20006
 619.6	20075
 620.2	20068
 620.7	20123
 621.2	20080
 621.8	20127
 622.3	20150
 622.8	20111
 623.4	20139
 623.9	20197
 624.4	20170
 625.0	20166
 625.5	20178
 626.0	20185
 626.6	20229
 627.1	20222
 627.6	20171
 628.2	20141
 628.7	20177
 629.2	20156
 629.8	20185
 630.3	20196
 630.8	20175
 631.4	20153
 631.9	20184
 632.4	20083
 632.9	20097
 633.5	20097
 634.0	20063
 634.5	20139
 635.1	20071
 635.6	20047
 636.1	20034
 636.7	20093
 637.2	20077
 637.7	19997
 638.3	20081
 638.8	20080
 639.3	20080
 639.8	20046
 640.4	20061
 640.9	20077
 641.4	19990
 642.0	19979
 642.5	20003
 643.0	19977
 643.6	20051
 644.1	20016
 644.6	20017
 645.1	20064
 645.7	20033
 646.2	19999
 646.7	20021
 647.3	20051
 647.8	20049
 648.3	20027
 648.9	20061
 649.4	19979
 649.9	20046
 650.4	20053
 651.0	20094
 651.5	20099
 652.0	20151
 652.6	20095
 653.1	20173
 653.6	20089
 654.1	20158
 654.7	20112
 655.2	20189
 655.7	20225
 656.3	20237
 656.8	20179
 657.3	20235
 657.8	20185
 658.4	20176
 658.9	20178
 659.4	20265
 659.9	20255
 660.5	20227
 661.0	20270
 661.5	20307
 662.1	20271
 662.6	20283
 663.1	20244
 663.6	20318
 664.2	20279
 664.7	20248
 665.2	20175
 665.7	20297
 666.3	20262
 666.8	20275
 667.3	20274
 667.8	20236
 668.4	20267
 668.9	20274
 669.4	20250
 669.9	20284
 670.5	20227
 671.0	20243
 671.5	20191
 672.0	20255
 672.6	20265
 673.1	20283
 673.6	20199
 674.1	20236
 674.7	20227
 675.2	20274
 675.7	20135
 676.2	20151
 676.8	20209
 677.3	20226
 677.8	20150
 678.3	20261
 678.9	20195
 679.4	20151
 679.9	20204
 680.4	20210
 681.0	20180
 681.5	20216
 682.0	20189
 682.5	20214
 683.1	20129
 683.6	20179
 684.1	20121
 684.6	20222
 685.1	20160
 685.7	20187
 686.2	20153
 686.7	20130
 687.2	20111
 687.8	20183
 688.3	20121
 688.8	20152
 689.3	20099
 689.8	20127
 690.4	20123
 690.9	20129
 691.4	20127
 691.9	20155
 692.4	20107
 693.0	20175
 693.5	20147
 694.0	20127
 694.5	20121
 695.1	20104
 695.6	20073
 696.1	20139
 696.6	20121
 697.1	20141
 697.7	20163
 698.2	20097
 698.7	20126
 699.2	20088
 699.7	20091
 700.3	20071
 700.8	20055
 701.3	20165
 701.8	20121
 702.3	20068
 702.8	20081
 703.4	20046
 703.9	20059
 704.4	20060
 704.9	20023
 705.4	20033
 706.0	20123
 706.5	20118
 707.0	20031
 707.5	20020
 708.0	20051
 708.5	20009
 709.1	20069
 709.6	20042
 710.1	20007
 710.6	19989
 711.1	19999
 711.7	20021
 712.2	20021
 712.7	20028
 713.2	20007
 713.7	20014
 714.2	19975
 714.8	20053
 715.3	20003
 715.8	20009
 716.3	20017
 716.8	19935
 717.3	19919
 717.8	20029
 718.4	20042
 718.9	19977
 719.4	20051
 719.9	19973
 720.4	20017
 720.9	20019
 721.4	20015
 722.0	20033
 722.5	20018
 723.0	20012
 723.5	20018
 724.0	19987
 724.5	19979
 725.0	19993
 725.6	19926
 726.1	19976
 726.6	20082
 727.1	20029
 727.6	20061
 728.1	20081
 728.6	20039
 729.1	20029
 729.7	20016
 730.2	20042
 730.7	20081
 731.2	20105
 731.7	20089
 732.2	20093
 732.7	20073
 733.2	20119
 733.8	20095
 734.3	20115
 734.8	20087
 735.3	20102
 735.8	20086
 736.3	20065
 736.8	20092
 737.3	20129
 737.8	20077
 738.4	20075
 738.9	20037
 739.4	20116
 739.9	20102
 740.4	20097
 740.9	20097
 741.4	20091
 741.9	20084
 742.4	20107
 742.9	20087
 743.4	20166
 744.0	20085
 744.5	20087
 745.0	20102
 745.5	20171
 746.0	20143
 746.5	20155
 747.0	20107
 747.5	20092
 748.0	20063
 748.5	20078
 749.0	20093
 749.5	20175
 750.0	20022
 750.5	20081
 751.1	20090
 751.6	20091
 752.1	20079
 752.6	20053
 753.1	20079
 753.6	20020
 754.1	19994
 754.6	20043
 755.1	19997
 755.6	20005
 756.1	19937
 756.6	20029
 757.1	19999
 757.6	19985
 758.1	19953
 758.6	19968
 759.1	19910
 759.6	19941
 760.1	19886
 760.7	19858
 761.2	19941
 761.7	19880
 762.2	19869
 762.7	19923
 763.2	19782
 763.7	19868
 764.2	19806
 764.7	19814
 765.2	19843
 765.7	19813
 766.2	19779
 766.7	19822
 767.2	19780
 767.7	19787
 768.2	19768
 768.7	19740
 769.2	19735
 769.7	19779
 770.2	19753
 770.7	19755
 771.2	19737
 771.7	19713
 772.2	19725
 772.7	19767
 773.2	19749
 773.7	19704
 774.2	19654
 774.7	19702
 775.2	19702
 775.7	19676
 776.2	19670
 776.7	19695
 777.2	19631
 777.7	19697
 778.2	19685
 778.7	19718
 779.2	19729
 779.7	19760
 780.2	19609
 780.7	19683
 781.2	19683
 781.7	19754
 782.2	19679
 782.6	19747
 783.1	19748
 783.6	19719
 784.1	19689
 784.6	19679
 785.1	19692
 785.6	19683
 786.1	19714
 786.6	19730
 787.1	19675
 787.6	19678
 788.1	19671
 788.6	19665
 789.1	19658
 789.6	19701
 790.1	19710
 790.6	19713
 791.1	19619
 791.6	19628
 792.0	19650
 792.5	19685
 793.0	19665
 793.5	19664
 794.0	19596
 794.5	19683
 795.0	19678
 795.5	19648
 796.0	19663
 796.5	19611
 797.0	19646
 797.5	19679
 798.0	19543
 798.4	19589
 798.9	19574
 799.4	19597
 799.9	19594
 800.4	19476
 800.9	19566
 801.4	19635
 801.9	19590
 802.4	19534
 802.9	19595
 803.3	19587
 803.8	19557
 804.3	19507
 804.8	19571
 805.3	19525
 805.8	19517
 806.3	19519
 806.8	19495
 807.2	19487
 807.7	19470
 808.2	19500
 808.7	19423
 809.2	19434
 809.7	19381
 810.2	19433
 810.7	19377
 811.1	19393
 811.6	19392
 812.1	19355
 812.6	19319
 813.1	19363
 813.6	19379
 814.1	19362
 814.5	19319
 815.0	19339
 815.5	19308
 816.0	19262
 816.5	19335
 817.0	19280
 817.4	19260
 817.9	19301
 818.4	19243
 818.9	19311
 819.4	19268
 819.9	19254
 820.3	19229
 820.8	19230
 821.3	19225
 821.8	19237
 822.3	19200
 822.7	19179
 823.2	19235
 823.7	19192
 824.2	19195
 824.7	19176
 825.2	19193
 825.6	19171
 826.1	19163
 826.6	19213
 827.1	19200
 827.6	19193
 828.0	19139
 828.5	19114
 829.0	19153
 829.5	19093
 829.9	19108
 830.4	19155
 830.9	19143
 831.4	19164
 831.9	19128
 832.3	19205
 832.8	19158
 833.3	19151
 833.8	19229
 834.2	19218
 834.7	19072
 835.2	19159
 835.7	19163
 836.1	19156
 836.6	19139
 837.1	19149
 837.6	19158
 838.0	19182
 838.5	19210
 839.0	19212
 839.5	19202
 839.9	19131
 840.4	19136
 840.9	19099
 841.4	19137
 841.8	19155
 842.3	19178
 842.8	19194
 843.3	19186
 843.7	19092
 844.2	19083
 844.7	19170
 845.1	19146
 845.6	19064
 846.1	19086
 846.6	19120
 847.0	19029
 847.5	19071
 848.0	19056
 848.4	19098
 848.9	19072
 849.4	19056
 849.8	19074
 850.3	19071
 850.8	19119
 851.3	19083
 851.7	19073
 852.2	19085
 852.7	19073
 853.1	19052
 853.6	19008
 854.1	19049
 854.5	19019
 855.0	19004
 855.5	19000
 855.9	19063
 856.4	19056
 856.9	18966
 857.3	19022
 857.8	18996
 858.3	19041
 858.7	18995
 859.2	19014
 859.7	19006
 860.1	19060
 860.6	19037
 861.1	18981
 861.5	19023
 862.0	19041
 862.4	19004
 862.9	18969
 863.4	19008
 863.8	19017
 864.3	19015
 864.8	18933
 865.2	18989
 865.7	19015
 866.1	19017
 866.6	18945
 867.1	19017
 867.5	19001
 868.0	18982
 868.5	18935
 868.9	18947
 869.4	19045
 869.8	18999
 870.3	18955
 870.8	19023
 871.2	18978
 871.7	18971
 872.1	18918
 872.6	18969
 873.0	18938
 873.5	19012
 874.0	18995
 874.4	18878
 874.9	18907
 875.3	18867
 875.8	18779
 876.2	18594
 876.7	18466
 877.2	18169
 877.6	17800
 878.1	17457
