#xlabel Wavelength (nm)
#ylabel Spectrometer Array Counts
#title Exposure time is 9300 ms
## lambda	counts
 349.8	16863
 350.3	17117
 350.8	17365
 351.3	17553
 351.9	17657
 352.4	17777
 352.9	17854
 353.4	17825
 354.0	17836
 354.5	17881
 355.0	17885
 355.5	17901
 356.0	17861
 356.6	17833
 357.1	17877
 357.6	17854
 358.1	17883
 358.7	17831
 359.2	17852
 359.7	17866
 360.2	17903
 360.8	17875
 361.3	17970
 361.8	17917
 362.3	17954
 362.9	17918
 363.4	17992
 363.9	17990
 364.4	18021
 364.9	17944
 365.5	18015
 366.0	17998
 366.5	17964
 367.0	18013
 367.6	18034
 368.1	18038
 368.6	17985
 369.1	18039
 369.7	18091
 370.2	18026
 370.7	18028
 371.2	18079
 371.8	18129
 372.3	18063
 372.8	18142
 373.3	18159
 373.9	18115
 374.4	18133
 374.9	18187
 375.5	18091
 376.0	18218
 376.5	18189
 377.0	18221
 377.6	18173
 378.1	18252
 378.6	18203
 379.1	18213
 379.7	18207
 380.2	18280
 380.7	18297
 381.2	18254
 381.8	18258
 382.3	18305
 382.8	18289
 383.4	18343
 383.9	18304
 384.4	18451
 384.9	18370
 385.5	18395
 386.0	18397
 386.5	18472
 387.1	18411
 387.6	18431
 388.1	18443
 388.6	18470
 389.2	18465
 389.7	18501
 390.2	18488
 390.8	18590
 391.3	18571
 391.8	18587
 392.3	18589
 392.9	18598
 393.4	18611
 393.9	18689
 394.5	18709
 395.0	18671
 395.5	18710
 396.0	18715
 396.6	18700
 397.1	18795
 397.6	18806
 398.2	18813
 398.7	18819
 399.2	18909
 399.8	18795
 400.3	18861
 400.8	18911
 401.3	18899
 401.9	18920
 402.4	18947
 402.9	18947
 403.5	18986
 404.0	18981
 404.5	18951
 405.1	18974
 405.6	19085
 406.1	19067
 406.7	19099
 407.2	19122
 407.7	19215
 408.2	19227
 408.8	19251
 409.3	19299
 409.8	19358
 410.4	19345
 410.9	19358
 411.4	19334
 412.0	19401
 412.5	19467
 413.0	19441
 413.6	19490
 414.1	19471
 414.6	19518
 415.2	19572
 415.7	19527
 416.2	19589
 416.8	19587
 417.3	19593
 417.8	19627
 418.4	19729
 418.9	19678
 419.4	19823
 420.0	19729
 420.5	19801
 421.0	19761
 421.5	19857
 422.1	19849
 422.6	19913
 423.1	19946
 423.7	19931
 424.2	19928
 424.7	19984
 425.3	19969
 425.8	19998
 426.3	19995
 426.9	20070
 427.4	20024
 427.9	20142
 428.5	20107
 429.0	20161
 429.6	20145
 430.1	20246
 430.6	20273
 431.2	20250
 431.7	20379
 432.2	20379
 432.8	20391
 433.3	20528
 433.8	20561
 434.4	20569
 434.9	20615
 435.4	20695
 436.0	20704
 436.5	20729
 437.0	20813
 437.6	20812
 438.1	20879
 438.6	20897
 439.2	20935
 439.7	20937
 440.2	20887
 440.8	20920
 441.3	20930
 441.8	20938
 442.4	20907
 442.9	20936
 443.5	20975
 444.0	20971
 444.5	21002
 445.1	20929
 445.6	20984
 446.1	21018
 446.7	21057
 447.2	21096
 447.7	21113
 448.3	21205
 448.8	21204
 449.3	21279
 449.9	21275
 450.4	21418
 450.9	21492
 451.5	21547
 452.0	21569
 452.6	21634
 453.1	21737
 453.6	21797
 454.2	21737
 454.7	21852
 455.2	21910
 455.8	21991
 456.3	21968
 456.8	22111
 457.4	22071
 457.9	22098
 458.5	22162
 459.0	22134
 459.5	22181
 460.1	22140
 460.6	22183
 461.1	22183
 461.7	22227
 462.2	22191
 462.7	22228
 463.3	22168
 463.8	22234
 464.4	22310
 464.9	22274
 465.4	22354
 466.0	22277
 466.5	22362
 467.0	22331
 467.6	22415
 468.1	22529
 468.7	22493
 469.2	22463
 469.7	22587
 470.3	22610
 470.8	22674
 471.3	22691
 471.9	22694
 472.4	22777
 473.0	22853
 473.5	22902
 474.0	22926
 474.6	22967
 475.1	22997
 475.6	23103
 476.2	23135
 476.7	23139
 477.3	23220
 477.8	23196
 478.3	23156
 478.9	23372
 479.4	23304
 479.9	23348
 480.5	23354
 481.0	23417
 481.6	23471
 482.1	23566
 482.6	23585
 483.2	23643
 483.7	23766
 484.2	23753
 484.8	23640
 485.3	23762
 485.9	23859
 486.4	23855
 486.9	23913
 487.5	23905
 488.0	23942
 488.6	24028
 489.1	24068
 489.6	24135
 490.2	24155
 490.7	24151
 491.2	24125
 491.8	24200
 492.3	24169
 492.9	24229
 493.4	24244
 493.9	24265
 494.5	24264
 495.0	24323
 495.6	24246
 496.1	24255
 496.6	24303
 497.2	24223
 497.7	24194
 498.2	24266
 498.8	24273
 499.3	24207
 499.9	24273
 500.4	24267
 500.9	24280
 501.5	24296
 502.0	24398
 502.6	24408
 503.1	24529
 503.6	24540
 504.2	24542
 504.7	24605
 505.2	24722
 505.8	24769
 506.3	24920
 506.9	24999
 507.4	25048
 507.9	25092
 508.5	25200
 509.0	25324
 509.6	25460
 510.1	25500
 510.6	25605
 511.2	25688
 511.7	25752
 512.2	25867
 512.8	25948
 513.3	25961
 513.9	25998
 514.4	26090
 514.9	26191
 515.5	26112
 516.0	26193
 516.6	26161
 517.1	26204
 517.6	26167
 518.2	26135
 518.7	26059
 519.3	26079
 519.8	26071
 520.3	26035
 520.9	25971
 521.4	25944
 521.9	25962
 522.5	25860
 523.0	25841
 523.6	25862
 524.1	25710
 524.6	25749
 525.2	25762
 525.7	25811
 526.3	25757
 526.8	25860
 527.3	25832
 527.9	25883
 528.4	25899
 528.9	25991
 529.5	26047
 530.0	26087
 530.6	26178
 531.1	26242
 531.6	26229
 532.2	26400
 532.7	26439
 533.3	26551
 533.8	26738
 534.3	26851
 534.9	26920
 535.4	26956
 536.0	27089
 536.5	27202
 537.0	27246
 537.6	27335
 538.1	27449
 538.6	27532
 539.2	27537
 539.7	27614
 540.3	27750
 540.8	27750
 541.3	27755
 541.9	27816
 542.4	27837
 543.0	27920
 543.5	27899
 544.0	27882
 544.6	27921
 545.1	27941
 545.6	27966
 546.2	27951
 546.7	27859
 547.3	27913
 547.8	27881
 548.3	27919
 548.9	27819
 549.4	27813
 550.0	27773
 550.5	27827
 551.0	27855
 551.6	27803
 552.1	27813
 552.6	27815
 553.2	27766
 553.7	27755
 554.3	27779
 554.8	27858
 555.3	27731
 555.9	27807
 556.4	27791
 556.9	27913
 557.5	27951
 558.0	27943
 558.6	27946
 559.1	28031
 559.6	28040
 560.2	28086
 560.7	28124
 561.3	28125
 561.8	28137
 562.3	28283
 562.9	28297
 563.4	28361
 563.9	28371
 564.5	28405
 565.0	28413
 565.6	28453
 566.1	28469
 566.6	28485
 567.2	28480
 567.7	28590
 568.2	28538
 568.8	28549
 569.3	28541
 569.9	28608
 570.4	28595
 570.9	28590
 571.5	28598
 572.0	28609
 572.5	28671
 573.1	28637
 573.6	28713
 574.1	28715
 574.7	28745
 575.2	28744
 575.8	28805
 576.3	28913
 576.8	28910
 577.4	28951
 577.9	29000
 578.4	29007
 579.0	29057
 579.5	29192
 580.1	29157
 580.6	29221
 581.1	29329
 581.7	29401
 582.2	29379
 582.7	29454
 583.3	29531
 583.8	29543
 584.3	29534
 584.9	29615
 585.4	29647
 586.0	29658
 586.5	29717
 587.0	29719
 587.6	29816
 588.1	29786
 588.6	29863
 589.2	29833
 589.7	29859
 590.2	29859
 590.8	29842
 591.3	29867
 591.9	29808
 592.4	29847
 592.9	29771
 593.5	29741
 594.0	29709
 594.5	29696
 595.1	29636
 595.6	29575
 596.1	29599
 596.7	29534
 597.2	29535
 597.7	29444
 598.3	29437
 598.8	29381
 599.3	29353
 599.9	29290
 600.4	29257
 601.0	29236
 601.5	29218
 602.0	29182
 602.6	29140
 603.1	29150
 603.6	29151
 604.2	29241
 604.7	29171
 605.2	29242
 605.8	29180
 606.3	29223
 606.8	29301
 607.4	29325
 607.9	29392
 608.4	29371
 609.0	29439
 609.5	29507
 610.0	29514
 610.6	29641
 611.1	29607
 611.6	29688
 612.2	29727
 612.7	29824
 613.2	29859
 613.8	29866
 614.3	29954
 614.8	30041
 615.4	30049
 615.9	30195
 616.4	30315
 617.0	30328
 617.5	30463
 618.0	30557
 618.6	30580
 619.1	30692
 619.6	30824
 620.2	30929
 620.7	31069
 621.2	31124
 621.8	31230
 622.3	31325
 622.8	31368
 623.4	31449
 623.9	31556
 624.4	31579
 625.0	31607
 625.5	31625
 626.0	31653
 626.6	31716
 627.1	31692
 627.6	31650
 628.2	31615
 628.7	31659
 629.2	31631
 629.8	31640
 630.3	31607
 630.8	31566
 631.4	31497
 631.9	31473
 632.4	31327
 632.9	31281
 633.5	31227
 634.0	31146
 634.5	31145
 635.1	31037
 635.6	30986
 636.1	30917
 636.7	30878
 637.2	30828
 637.7	30690
 638.3	30743
 638.8	30683
 639.3	30659
 639.8	30565
 640.4	30550
 640.9	30544
 641.4	30438
 642.0	30385
 642.5	30379
 643.0	30347
 643.6	30415
 644.1	30361
 644.6	30378
 645.1	30387
 645.7	30387
 646.2	30341
 646.7	30372
 647.3	30403
 647.8	30430
 648.3	30411
 648.9	30475
 649.4	30415
 649.9	30495
 650.4	30534
 651.0	30612
 651.5	30649
 652.0	30727
 652.6	30719
 653.1	30835
 653.6	30798
 654.1	30878
 654.7	30882
 655.2	30998
 655.7	31073
 656.3	31119
 656.8	31113
 657.3	31205
 657.8	31193
 658.4	31238
 658.9	31283
 659.4	31377
 659.9	31402
 660.5	31396
 661.0	31458
 661.5	31518
 662.1	31505
 662.6	31531
 663.1	31511
 663.6	31601
 664.2	31564
 664.7	31545
 665.2	31492
 665.7	31591
 666.3	31551
 666.8	31552
 667.3	31543
 667.8	31517
 668.4	31529
 668.9	31526
 669.4	31481
 669.9	31495
 670.5	31419
 671.0	31428
 671.5	31371
 672.0	31395
 672.6	31377
 673.1	31399
 673.6	31291
 674.1	31305
 674.7	31281
 675.2	31310
 675.7	31175
 676.2	31150
 676.8	31199
 677.3	31190
 677.8	31102
 678.3	31183
 678.9	31100
 679.4	31028
 679.9	31075
 680.4	31058
 681.0	31011
 681.5	31023
 682.0	30973
 682.5	30989
 683.1	30891
 683.6	30907
 684.1	30845
 684.6	30927
 685.1	30869
 685.7	30873
 686.2	30846
 686.7	30805
 687.2	30793
 687.8	30841
 688.3	30786
 688.8	30798
 689.3	30751
 689.8	30771
 690.4	30761
 690.9	30783
 691.4	30806
 691.9	30799
 692.4	30783
 693.0	30846
 693.5	30811
 694.0	30804
 694.5	30798
 695.1	30788
 695.6	30747
 696.1	30815
 696.6	30803
 697.1	30826
 697.7	30848
 698.2	30780
 698.7	30811
 699.2	30770
 699.7	30780
 700.3	30729
 700.8	30700
 701.3	30783
 701.8	30730
 702.3	30676
 702.8	30674
 703.4	30652
 703.9	30620
 704.4	30585
 704.9	30539
 705.4	30522
 706.0	30572
 706.5	30540
 707.0	30445
 707.5	30407
 708.0	30413
 708.5	30346
 709.1	30375
 709.6	30328
 710.1	30270
 710.6	30233
 711.1	30203
 711.7	30199
 712.2	30166
 712.7	30162
 713.2	30117
 713.7	30108
 714.2	30055
 714.8	30121
 715.3	30061
 715.8	30053
 716.3	30052
 716.8	29981
 717.3	29965
 717.8	30053
 718.4	30059
 718.9	30005
 719.4	30085
 719.9	29998
 720.4	30040
 720.9	30057
 721.4	30050
 722.0	30084
 722.5	30079
 723.0	30081
 723.5	30097
 724.0	30073
 724.5	30071
 725.0	30107
 725.6	30055
 726.1	30114
 726.6	30221
 727.1	30161
 727.6	30205
 728.1	30237
 728.6	30201
 729.1	30194
 729.7	30186
 730.2	30214
 730.7	30237
 731.2	30273
 731.7	30260
 732.2	30273
 732.7	30251
 733.2	30291
 733.8	30259
 734.3	30289
 734.8	30289
 735.3	30332
 735.8	30329
 736.3	30334
 736.8	30380
 737.3	30433
 737.8	30395
 738.4	30407
 738.9	30375
 739.4	30462
 739.9	30447
 740.4	30471
 740.9	30453
 741.4	30456
 741.9	30439
 742.4	30458
 742.9	30441
 743.4	30500
 744.0	30402
 744.5	30391
 745.0	30383
 745.5	30433
 746.0	30395
 746.5	30397
 747.0	30331
 747.5	30296
 748.0	30261
 748.5	30266
 749.0	30252
 749.5	30307
 750.0	30135
 750.5	30153
 751.1	30129
 751.6	30109
 752.1	30060
 752.6	30011
 753.1	30023
 753.6	29935
 754.1	29873
 754.6	29881
 755.1	29809
 755.6	29779
 756.1	29676
 756.6	29723
 757.1	29671
 757.6	29615
 758.1	29540
 758.6	29506
 759.1	29401
 759.6	29398
 760.1	29315
 760.7	29231
 761.2	29274
 761.7	29199
 762.2	29150
 762.7	29150
 763.2	29004
 763.7	29034
 764.2	28929
 764.7	28894
 765.2	28871
 765.7	28791
 766.2	28725
 766.7	28709
 767.2	28617
 767.7	28573
 768.2	28519
 768.7	28443
 769.2	28393
 769.7	28399
 770.2	28337
 770.7	28318
 771.2	28252
 771.7	28207
 772.2	28187
 772.7	28200
 773.2	28151
 773.7	28085
 774.2	28011
 774.7	28027
 775.2	27987
 775.7	27953
 776.2	27914
 776.7	27926
 777.2	27843
 777.7	27886
 778.2	27843
 778.7	27876
 779.2	27867
 779.7	27870
 780.2	27714
 780.7	27765
 781.2	27746
 781.7	27785
 782.2	27709
 782.6	27757
 783.1	27741
 783.6	27703
 784.1	27655
 784.6	27644
 785.1	27646
 785.6	27630
 786.1	27639
 786.6	27650
 787.1	27589
 787.6	27566
 788.1	27538
 788.6	27523
 789.1	27491
 789.6	27498
 790.1	27497
 790.6	27479
 791.1	27368
 791.6	27347
 792.0	27336
 792.5	27341
 793.0	27295
 793.5	27257
 794.0	27174
 794.5	27227
 795.0	27163
 795.5	27122
 796.0	27090
 796.5	27013
 797.0	26996
 797.5	26997
 798.0	26816
 798.4	26807
 798.9	26755
 799.4	26719
 799.9	26679
 800.4	26517
 800.9	26567
 801.4	26559
 801.9	26470
 802.4	26353
 802.9	26354
 803.3	26305
 803.8	26221
 804.3	26134
 804.8	26129
 805.3	26044
 805.8	25968
 806.3	25914
 806.8	25849
 807.2	25783
 807.7	25712
 808.2	25686
 808.7	25575
 809.2	25531
 809.7	25414
 810.2	25435
 810.7	25324
 811.1	25282
 811.6	25237
 812.1	25153
 812.6	25070
 813.1	25071
 813.6	25047
 814.1	24992
 814.5	24916
 815.0	24889
 815.5	24805
 816.0	24741
 816.5	24757
 817.0	24667
 817.4	24619
 817.9	24617
 818.4	24518
 818.9	24561
 819.4	24486
 819.9	24438
 820.3	24377
 820.8	24347
 821.3	24317
 821.8	24293
 822.3	24217
 822.7	24175
 823.2	24206
 823.7	24135
 824.2	24113
 824.7	24066
 825.2	24062
 825.6	24015
 826.1	23985
 826.6	24013
 827.1	23973
 827.6	23950
 828.0	23875
 828.5	23834
 829.0	23849
 829.5	23777
 829.9	23762
 830.4	23789
 830.9	23758
 831.4	23766
 831.9	23712
 832.3	23764
 832.8	23693
 833.3	23677
 833.8	23743
 834.2	23717
 834.7	23560
 835.2	23638
 835.7	23617
 836.1	23603
 836.6	23569
 837.1	23559
 837.6	23556
 838.0	23567
 838.5	23580
 839.0	23574
 839.5	23551
 839.9	23471
 840.4	23462
 840.9	23416
 841.4	23441
 841.8	23445
 842.3	23446
 842.8	23445
 843.3	23431
 843.7	23323
 844.2	23306
 844.7	23367
 845.1	23334
 845.6	23247
 846.1	23252
 846.6	23276
 847.0	23170
 847.5	23199
 848.0	23165
 848.4	23188
 848.9	23133
 849.4	23093
 849.8	23100
 850.3	23086
 850.8	23105
 851.3	23055
 851.7	23033
 852.2	23019
 852.7	22996
 853.1	22963
 853.6	22886
 854.1	22908
 854.5	22855
 855.0	22829
 855.5	22796
 855.9	22838
 856.4	22807
 856.9	22706
 857.3	22737
 857.8	22677
 858.3	22687
 858.7	22617
 859.2	22629
 859.7	22625
 860.1	22665
 860.6	22625
 861.1	22545
 861.5	22569
 862.0	22548
 862.4	22503
 862.9	22451
 863.4	22477
 863.8	22462
 864.3	22439
 864.8	22340
 865.2	22371
 865.7	22369
 866.1	22363
 866.6	22274
 867.1	22317
 867.5	22282
 868.0	22245
 868.5	22176
 868.9	22158
 869.4	22230
 869.8	22172
 870.3	22110
 870.8	22161
 871.2	22102
 871.7	22079
 872.1	22012
 872.6	22045
 873.0	22009
 873.5	22066
 874.0	22034
 874.4	21907
 874.9	21919
 875.3	21855
 875.8	21743
 876.2	21519
 876.7	21339
 877.2	20979
 877.6	20531
 878.1	20067
