#xlabel Wavelength (nm)
#ylabel Spectrometer Array Counts
#title Exposure time is 9300 ms
## lambda	counts
 349.8	16867
 350.3	17119
 350.8	17363
 351.3	17550
 351.9	17651
 352.4	17769
 352.9	17843
 353.4	17804
 354.0	17813
 354.5	17854
 355.0	17861
 355.5	17878
 356.0	17842
 356.6	17809
 357.1	17862
 357.6	17845
 358.1	17871
 358.7	17815
 359.2	17839
 359.7	17857
 360.2	17891
 360.8	17866
 361.3	17964
 361.8	17911
 362.3	17942
 362.9	17907
 363.4	17981
 363.9	17985
 364.4	18016
 364.9	17931
 365.5	18007
 366.0	17991
 366.5	17954
 367.0	18002
 367.6	18028
 368.1	18030
 368.6	17970
 369.1	18029
 369.7	18085
 370.2	18018
 370.7	18018
 371.2	18070
 371.8	18119
 372.3	18050
 372.8	18125
 373.3	18150
 373.9	18107
 374.4	18118
 374.9	18171
 375.5	18078
 376.0	18209
 376.5	18178
 377.0	18207
 377.6	18161
 378.1	18239
 378.6	18190
 379.1	18204
 379.7	18195
 380.2	18267
 380.7	18281
 381.2	18247
 381.8	18243
 382.3	18292
 382.8	18279
 383.4	18331
 383.9	18291
 384.4	18439
 384.9	18359
 385.5	18377
 386.0	18387
 386.5	18463
 387.1	18402
 387.6	18421
 388.1	18438
 388.6	18454
 389.2	18456
 389.7	18489
 390.2	18477
 390.8	18577
 391.3	18555
 391.8	18571
 392.3	18575
 392.9	18588
 393.4	18597
 393.9	18677
 394.5	18697
 395.0	18655
 395.5	18699
 396.0	18706
 396.6	18686
 397.1	18784
 397.6	18788
 398.2	18799
 398.7	18801
 399.2	18897
 399.8	18782
 400.3	18849
 400.8	18898
 401.3	18885
 401.9	18904
 402.4	18933
 402.9	18927
 403.5	18969
 404.0	18965
 404.5	18937
 405.1	18957
 405.6	19071
 406.1	19053
 406.7	19085
 407.2	19105
 407.7	19209
 408.2	19216
 408.8	19239
 409.3	19283
 409.8	19347
 410.4	19330
 410.9	19349
 411.4	19317
 412.0	19393
 412.5	19451
 413.0	19426
 413.6	19475
 414.1	19458
 414.6	19501
 415.2	19558
 415.7	19511
 416.2	19576
 416.8	19571
 417.3	19570
 417.8	19607
 418.4	19715
 418.9	19664
 419.4	19810
 420.0	19713
 420.5	19789
 421.0	19748
 421.5	19838
 422.1	19834
 422.6	19897
 423.1	19926
 423.7	19918
 424.2	19915
 424.7	19960
 425.3	19947
 425.8	19980
 426.3	19982
 426.9	20053
 427.4	20005
 427.9	20127
 428.5	20089
 429.0	20149
 429.6	20127
 430.1	20234
 430.6	20257
 431.2	20236
 431.7	20360
 432.2	20361
 432.8	20378
 433.3	20509
 433.8	20546
 434.4	20555
 434.9	20598
 435.4	20675
 436.0	20684
 436.5	20710
 437.0	20799
 437.6	20797
 438.1	20859
 438.6	20877
 439.2	20917
 439.7	20915
 440.2	20874
 440.8	20903
 441.3	20910
 441.8	20917
 442.4	20884
 442.9	20916
 443.5	20956
 444.0	20951
 444.5	20982
 445.1	20911
 445.6	20963
 446.1	21001
 446.7	21038
 447.2	21074
 447.7	21090
 448.3	21187
 448.8	21184
 449.3	21259
 449.9	21254
 450.4	21396
 450.9	21476
 451.5	21525
 452.0	21545
 452.6	21624
 453.1	21725
 453.6	21778
 454.2	21723
 454.7	21831
 455.2	21891
 455.8	21973
 456.3	21948
 456.8	22091
 457.4	22053
 457.9	22083
 458.5	22137
 459.0	22113
 459.5	22162
 460.1	22125
 460.6	22167
 461.1	22162
 461.7	22212
 462.2	22177
 462.7	22207
 463.3	22145
 463.8	22214
 464.4	22287
 464.9	22250
 465.4	22330
 466.0	22259
 466.5	22343
 467.0	22303
 467.6	22397
 468.1	22507
 468.7	22471
 469.2	22439
 469.7	22569
 470.3	22589
 470.8	22657
 471.3	22677
 471.9	22674
 472.4	22756
 473.0	22833
 473.5	22883
 474.0	22910
 474.6	22948
 475.1	22982
 475.6	23079
 476.2	23113
 476.7	23117
 477.3	23198
 477.8	23174
 478.3	23132
 478.9	23344
 479.4	23275
 479.9	23319
 480.5	23335
 481.0	23397
 481.6	23447
 482.1	23548
 482.6	23560
 483.2	23606
 483.7	23739
 484.2	23723
 484.8	23617
 485.3	23733
 485.9	23833
 486.4	23831
 486.9	23886
 487.5	23874
 488.0	23919
 488.6	24004
 489.1	24044
 489.6	24111
 490.2	24133
 490.7	24120
 491.2	24101
 491.8	24179
 492.3	24141
 492.9	24199
 493.4	24216
 493.9	24239
 494.5	24237
 495.0	24293
 495.6	24221
 496.1	24223
 496.6	24272
 497.2	24196
 497.7	24169
 498.2	24237
 498.8	24253
 499.3	24176
 499.9	24245
 500.4	24245
 500.9	24251
 501.5	24266
 502.0	24371
 502.6	24378
 503.1	24492
 503.6	24507
 504.2	24521
 504.7	24581
 505.2	24694
 505.8	24746
 506.3	24895
 506.9	24970
 507.4	25019
 507.9	25066
 508.5	25173
 509.0	25293
 509.6	25438
 510.1	25475
 510.6	25575
 511.2	25662
 511.7	25720
 512.2	25835
 512.8	25918
 513.3	25939
 513.9	25965
 514.4	26062
 514.9	26158
 515.5	26083
 516.0	26163
 516.6	26129
 517.1	26172
 517.6	26137
 518.2	26102
 518.7	26028
 519.3	26043
 519.8	26039
 520.3	26007
 520.9	25938
 521.4	25915
 521.9	25935
 522.5	25829
 523.0	25812
 523.6	25830
 524.1	25681
 524.6	25717
 525.2	25734
 525.7	25784
 526.3	25729
 526.8	25827
 527.3	25801
 527.9	25850
 528.4	25868
 528.9	25958
 529.5	26021
 530.0	26048
 530.6	26147
 531.1	26204
 531.6	26195
 532.2	26365
 532.7	26408
 533.3	26521
 533.8	26705
 534.3	26823
 534.9	26887
 535.4	26917
 536.0	27062
 536.5	27167
 537.0	27213
 537.6	27303
 538.1	27415
 538.6	27502
 539.2	27500
 539.7	27577
 540.3	27711
 540.8	27714
 541.3	27711
 541.9	27781
 542.4	27799
 543.0	27882
 543.5	27859
 544.0	27845
 544.6	27882
 545.1	27902
 545.6	27930
 546.2	27915
 546.7	27820
 547.3	27881
 547.8	27843
 548.3	27874
 548.9	27786
 549.4	27778
 550.0	27737
 550.5	27791
 551.0	27822
 551.6	27771
 552.1	27772
 552.6	27775
 553.2	27729
 553.7	27712
 554.3	27741
 554.8	27821
 555.3	27690
 555.9	27764
 556.4	27756
 556.9	27877
 557.5	27911
 558.0	27896
 558.6	27907
 559.1	27992
 559.6	28004
 560.2	28049
 560.7	28081
 561.3	28087
 561.8	28093
 562.3	28237
 562.9	28250
 563.4	28322
 563.9	28331
 564.5	28369
 565.0	28374
 565.6	28411
 566.1	28427
 566.6	28443
 567.2	28445
 567.7	28553
 568.2	28499
 568.8	28506
 569.3	28502
 569.9	28569
 570.4	28552
 570.9	28546
 571.5	28555
 572.0	28561
 572.5	28634
 573.1	28597
 573.6	28673
 574.1	28673
 574.7	28703
 575.2	28703
 575.8	28767
 576.3	28869
 576.8	28860
 577.4	28907
 577.9	28959
 578.4	28967
 579.0	29015
 579.5	29145
 580.1	29114
 580.6	29179
 581.1	29294
 581.7	29359
 582.2	29337
 582.7	29410
 583.3	29490
 583.8	29494
 584.3	29482
 584.9	29572
 585.4	29601
 586.0	29615
 586.5	29670
 587.0	29680
 587.6	29771
 588.1	29750
 588.6	29823
 589.2	29791
 589.7	29817
 590.2	29813
 590.8	29798
 591.3	29820
 591.9	29757
 592.4	29797
 592.9	29723
 593.5	29696
 594.0	29659
 594.5	29651
 595.1	29588
 595.6	29535
 596.1	29554
 596.7	29490
 597.2	29495
 597.7	29405
 598.3	29389
 598.8	29347
 599.3	29305
 599.9	29247
 600.4	29217
 601.0	29199
 601.5	29168
 602.0	29145
 602.6	29099
 603.1	29111
 603.6	29115
 604.2	29198
 604.7	29129
 605.2	29199
 605.8	29138
 606.3	29181
 606.8	29259
 607.4	29278
 607.9	29349
 608.4	29329
 609.0	29395
 609.5	29458
 610.0	29467
 610.6	29592
 611.1	29561
 611.6	29643
 612.2	29681
 612.7	29780
 613.2	29823
 613.8	29815
 614.3	29905
 614.8	29996
 615.4	30002
 615.9	30155
 616.4	30271
 617.0	30279
 617.5	30415
 618.0	30508
 618.6	30535
 619.1	30647
 619.6	30783
 620.2	30886
 620.7	31028
 621.2	31069
 621.8	31177
 622.3	31269
 622.8	31319
 623.4	31403
 623.9	31501
 624.4	31530
 625.0	31556
 625.5	31576
 626.0	31603
 626.6	31657
 627.1	31643
 627.6	31597
 628.2	31565
 628.7	31609
 629.2	31582
 629.8	31581
 630.3	31555
 630.8	31514
 631.4	31445
 631.9	31425
 632.4	31273
 632.9	31233
 633.5	31181
 634.0	31103
 634.5	31090
 635.1	30985
 635.6	30935
 636.1	30865
 636.7	30831
 637.2	30781
 637.7	30647
 638.3	30693
 638.8	30636
 639.3	30611
 639.8	30511
 640.4	30500
 640.9	30495
 641.4	30386
 642.0	30345
 642.5	30341
 643.0	30307
 643.6	30376
 644.1	30323
 644.6	30332
 645.1	30345
 645.7	30347
 646.2	30301
 646.7	30327
 647.3	30361
 647.8	30385
 648.3	30371
 648.9	30430
 649.4	30378
 649.9	30455
 650.4	30495
 651.0	30569
 651.5	30614
 652.0	30688
 652.6	30675
 653.1	30790
 653.6	30749
 654.1	30836
 654.7	30847
 655.2	30964
 655.7	31032
 656.3	31078
 656.8	31079
 657.3	31164
 657.8	31151
 658.4	31199
 658.9	31242
 659.4	31334
 659.9	31365
 660.5	31364
 661.0	31423
 661.5	31482
 662.1	31471
 662.6	31498
 663.1	31475
 663.6	31563
 664.2	31526
 664.7	31510
 665.2	31451
 665.7	31555
 666.3	31521
 666.8	31519
 667.3	31513
 667.8	31485
 668.4	31491
 668.9	31493
 669.4	31449
 669.9	31459
 670.5	31387
 671.0	31394
 671.5	31341
 672.0	31366
 672.6	31350
 673.1	31363
 673.6	31269
 674.1	31277
 674.7	31253
 675.2	31274
 675.7	31146
 676.2	31118
 676.8	31174
 677.3	31159
 677.8	31073
 678.3	31151
 678.9	31075
 679.4	31007
 679.9	31047
 680.4	31026
 681.0	30989
 681.5	30996
 682.0	30940
 682.5	30968
 683.1	30873
 683.6	30884
 684.1	30815
 684.6	30902
 685.1	30849
 685.7	30851
 686.2	30827
 686.7	30785
 687.2	30772
 687.8	30821
 688.3	30769
 688.8	30785
 689.3	30729
 689.8	30754
 690.4	30741
 690.9	30754
 691.4	30777
 691.9	30775
 692.4	30763
 693.0	30828
 693.5	30790
 694.0	30782
 694.5	30777
 695.1	30763
 695.6	30729
 696.1	30799
 696.6	30787
 697.1	30802
 697.7	30823
 698.2	30759
 698.7	30783
 699.2	30747
 699.7	30757
 700.3	30705
 700.8	30685
 701.3	30759
 701.8	30719
 702.3	30657
 702.8	30651
 703.4	30636
 703.9	30602
 704.4	30567
 704.9	30521
 705.4	30508
 706.0	30547
 706.5	30519
 707.0	30425
 707.5	30392
 708.0	30397
 708.5	30327
 709.1	30367
 709.6	30315
 710.1	30250
 710.6	30213
 711.1	30182
 711.7	30184
 712.2	30145
 712.7	30145
 713.2	30099
 713.7	30088
 714.2	30036
 714.8	30102
 715.3	30045
 715.8	30033
 716.3	30025
 716.8	29959
 717.3	29938
 717.8	30030
 718.4	30041
 718.9	29981
 719.4	30065
 719.9	29983
 720.4	30019
 720.9	30045
 721.4	30037
 722.0	30066
 722.5	30061
 723.0	30065
 723.5	30083
 724.0	30057
 724.5	30051
 725.0	30091
 725.6	30042
 726.1	30101
 726.6	30204
 727.1	30151
 727.6	30189
 728.1	30217
 728.6	30179
 729.1	30180
 729.7	30167
 730.2	30195
 730.7	30228
 731.2	30254
 731.7	30243
 732.2	30259
 732.7	30231
 733.2	30274
 733.8	30243
 734.3	30277
 734.8	30275
 735.3	30305
 735.8	30312
 736.3	30311
 736.8	30362
 737.3	30427
 737.8	30377
 738.4	30391
 738.9	30361
 739.4	30450
 739.9	30436
 740.4	30463
 740.9	30434
 741.4	30434
 741.9	30429
 742.4	30439
 742.9	30425
 743.4	30484
 744.0	30390
 744.5	30367
 745.0	30367
 745.5	30418
 746.0	30381
 746.5	30384
 747.0	30317
 747.5	30276
 748.0	30243
 748.5	30251
 749.0	30237
 749.5	30289
 750.0	30127
 750.5	30141
 751.1	30118
 751.6	30086
 752.1	30043
 752.6	29991
 753.1	30007
 753.6	29915
 754.1	29864
 754.6	29865
 755.1	29794
 755.6	29768
 756.1	29663
 756.6	29711
 757.1	29651
 757.6	29598
 758.1	29533
 758.6	29489
 759.1	29387
 759.6	29386
 760.1	29297
 760.7	29219
 761.2	29256
 761.7	29184
 762.2	29138
 762.7	29135
 763.2	28993
 763.7	29019
 764.2	28913
 764.7	28879
 765.2	28857
 765.7	28778
 766.2	28707
 766.7	28694
 767.2	28599
 767.7	28558
 768.2	28500
 768.7	28426
 769.2	28372
 769.7	28380
 770.2	28325
 770.7	28293
 771.2	28240
 771.7	28189
 772.2	28174
 772.7	28187
 773.2	28139
 773.7	28071
 774.2	27993
 774.7	28012
 775.2	27974
 775.7	27935
 776.2	27899
 776.7	27912
 777.2	27823
 777.7	27871
 778.2	27827
 778.7	27854
 779.2	27839
 779.7	27859
 780.2	27698
 780.7	27743
 781.2	27732
 781.7	27768
 782.2	27691
 782.6	27747
 783.1	27730
 783.6	27691
 784.1	27637
 784.6	27629
 785.1	27627
 785.6	27616
 786.1	27628
 786.6	27628
 787.1	27573
 787.6	27555
 788.1	27523
 788.6	27511
 789.1	27479
 789.6	27485
 790.1	27486
 790.6	27463
 791.1	27359
 791.6	27333
 792.0	27325
 792.5	27329
 793.0	27278
 793.5	27241
 794.0	27165
 794.5	27213
 795.0	27149
 795.5	27107
 796.0	27073
 796.5	27002
 797.0	26983
 797.5	26983
 798.0	26801
 798.4	26799
 798.9	26742
 799.4	26706
 799.9	26668
 800.4	26510
 800.9	26553
 801.4	26549
 801.9	26462
 802.4	26342
 802.9	26344
 803.3	26289
 803.8	26203
 804.3	26116
 804.8	26117
 805.3	26027
 805.8	25948
 806.3	25897
 806.8	25833
 807.2	25771
 807.7	25704
 808.2	25676
 808.7	25559
 809.2	25508
 809.7	25403
 810.2	25416
 810.7	25307
 811.1	25278
 811.6	25227
 812.1	25140
 812.6	25055
 813.1	25063
 813.6	25033
 814.1	24982
 814.5	24901
 815.0	24881
 815.5	24799
 816.0	24721
 816.5	24738
 817.0	24659
 817.4	24609
 817.9	24605
 818.4	24503
 818.9	24542
 819.4	24472
 819.9	24421
 820.3	24361
 820.8	24333
 821.3	24306
 821.8	24277
 822.3	24207
 822.7	24161
 823.2	24188
 823.7	24126
 824.2	24098
 824.7	24053
 825.2	24044
 825.6	24000
 826.1	23972
 826.6	24002
 827.1	23960
 827.6	23942
 828.0	23868
 828.5	23819
 829.0	23839
 829.5	23763
 829.9	23753
 830.4	23779
 830.9	23747
 831.4	23754
 831.9	23701
 832.3	23751
 832.8	23681
 833.3	23663
 833.8	23725
 834.2	23705
 834.7	23551
 835.2	23622
 835.7	23607
 836.1	23595
 836.6	23552
 837.1	23547
 837.6	23543
 838.0	23558
 838.5	23567
 839.0	23563
 839.5	23541
 839.9	23455
 840.4	23445
 840.9	23401
 841.4	23428
 841.8	23435
 842.3	23435
 842.8	23437
 843.3	23419
 843.7	23314
 844.2	23291
 844.7	23359
 845.1	23323
 845.6	23235
 846.1	23241
 846.6	23258
 847.0	23160
 847.5	23188
 848.0	23151
 848.4	23172
 848.9	23127
 849.4	23086
 849.8	23083
 850.3	23071
 850.8	23097
 851.3	23046
 851.7	23015
 852.2	23007
 852.7	22983
 853.1	22951
 853.6	22875
 854.1	22895
 854.5	22849
 855.0	22818
 855.5	22790
 855.9	22825
 856.4	22795
 856.9	22700
 857.3	22724
 857.8	22670
 858.3	22677
 858.7	22608
 859.2	22615
 859.7	22607
 860.1	22651
 860.6	22611
 861.1	22534
 861.5	22553
 862.0	22536
 862.4	22487
 862.9	22437
 863.4	22459
 863.8	22453
 864.3	22427
 864.8	22323
 865.2	22360
 865.7	22356
 866.1	22354
 866.6	22259
 867.1	22313
 867.5	22281
 868.0	22243
 868.5	22168
 868.9	22151
 869.4	22226
 869.8	22161
 870.3	22098
 870.8	22149
 871.2	22085
 871.7	22059
 872.1	21990
 872.6	22022
 873.0	21975
 873.5	22037
 874.0	21999
 874.4	21883
 874.9	21900
 875.3	21842
 875.8	21727
 876.2	21510
 876.7	21345
 877.2	20979
 877.6	20533
 878.1	20067
