#xlabel Wavelength (nm)
#ylabel Spectrometer Array Counts
#title Exposure time is 9300 ms
## lambda	counts
 349.8	16751
 350.3	17009
 350.8	17256
 351.3	17439
 351.9	17537
 352.4	17635
 352.9	17705
 353.4	17666
 354.0	17657
 354.5	17699
 355.0	17701
 355.5	17713
 356.0	17672
 356.6	17643
 357.1	17687
 357.6	17671
 358.1	17697
 358.7	17639
 359.2	17661
 359.7	17677
 360.2	17708
 360.8	17671
 361.3	17768
 361.8	17707
 362.3	17734
 362.9	17700
 363.4	17773
 363.9	17770
 364.4	17796
 364.9	17713
 365.5	17782
 366.0	17765
 366.5	17718
 367.0	17763
 367.6	17785
 368.1	17778
 368.6	17720
 369.1	17772
 369.7	17823
 370.2	17747
 370.7	17745
 371.2	17798
 371.8	17838
 372.3	17761
 372.8	17833
 373.3	17845
 373.9	17797
 374.4	17807
 374.9	17853
 375.5	17754
 376.0	17868
 376.5	17835
 377.0	17856
 377.6	17804
 378.1	17873
 378.6	17816
 379.1	17818
 379.7	17803
 380.2	17869
 380.7	17871
 381.2	17826
 381.8	17819
 382.3	17855
 382.8	17837
 383.4	17875
 383.9	17837
 384.4	17978
 384.9	17892
 385.5	17911
 386.0	17909
 386.5	17977
 387.1	17912
 387.6	17926
 388.1	17930
 388.6	17943
 389.2	17929
 389.7	17959
 390.2	17934
 390.8	18016
 391.3	17983
 391.8	17983
 392.3	17968
 392.9	17970
 393.4	17958
 393.9	18027
 394.5	18029
 395.0	17973
 395.5	18003
 396.0	18000
 396.6	17967
 397.1	18052
 397.6	18053
 398.2	18053
 398.7	18056
 399.2	18139
 399.8	18013
 400.3	18082
 400.8	18123
 401.3	18106
 401.9	18115
 402.4	18133
 402.9	18119
 403.5	18142
 404.0	18131
 404.5	18090
 405.1	18089
 405.6	18184
 406.1	18151
 406.7	18163
 407.2	18172
 407.7	18251
 408.2	18239
 408.8	18242
 409.3	18271
 409.8	18315
 410.4	18282
 410.9	18278
 411.4	18237
 412.0	18297
 412.5	18339
 413.0	18299
 413.6	18337
 414.1	18301
 414.6	18334
 415.2	18375
 415.7	18313
 416.2	18363
 416.8	18342
 417.3	18330
 417.8	18352
 418.4	18437
 418.9	18376
 419.4	18504
 420.0	18395
 420.5	18458
 421.0	18407
 421.5	18484
 422.1	18469
 422.6	18515
 423.1	18532
 423.7	18507
 424.2	18495
 424.7	18534
 425.3	18503
 425.8	18521
 426.3	18515
 426.9	18575
 427.4	18512
 427.9	18618
 428.5	18561
 429.0	18602
 429.6	18565
 430.1	18638
 430.6	18637
 431.2	18581
 431.7	18683
 432.2	18647
 432.8	18634
 433.3	18735
 433.8	18740
 434.4	18718
 434.9	18729
 435.4	18780
 436.0	18763
 436.5	18756
 437.0	18830
 437.6	18809
 438.1	18857
 438.6	18861
 439.2	18884
 439.7	18879
 440.2	18827
 440.8	18855
 441.3	18856
 441.8	18857
 442.4	18823
 442.9	18857
 443.5	18884
 444.0	18877
 444.5	18907
 445.1	18825
 445.6	18858
 446.1	18881
 446.7	18895
 447.2	18911
 447.7	18909
 448.3	18977
 448.8	18938
 449.3	18981
 449.9	18935
 450.4	19035
 450.9	19074
 451.5	19078
 452.0	19058
 452.6	19087
 453.1	19135
 453.6	19159
 454.2	19064
 454.7	19136
 455.2	19154
 455.8	19209
 456.3	19154
 456.8	19277
 457.4	19214
 457.9	19221
 458.5	19267
 459.0	19227
 459.5	19267
 460.1	19223
 460.6	19265
 461.1	19257
 461.7	19295
 462.2	19255
 462.7	19293
 463.3	19222
 463.8	19286
 464.4	19356
 464.9	19302
 465.4	19359
 466.0	19271
 466.5	19345
 467.0	19284
 467.6	19352
 468.1	19437
 468.7	19370
 469.2	19311
 469.7	19406
 470.3	19398
 470.8	19423
 471.3	19418
 471.9	19376
 472.4	19438
 473.0	19482
 473.5	19497
 474.0	19499
 474.6	19513
 475.1	19507
 475.6	19577
 476.2	19593
 476.7	19575
 477.3	19634
 477.8	19582
 478.3	19521
 478.9	19708
 479.4	19608
 479.9	19631
 480.5	19617
 481.0	19639
 481.6	19668
 482.1	19731
 482.6	19717
 483.2	19732
 483.7	19849
 484.2	19784
 484.8	19645
 485.3	19739
 485.9	19818
 486.4	19782
 486.9	19807
 487.5	19777
 488.0	19786
 488.6	19845
 489.1	19861
 489.6	19914
 490.2	19909
 490.7	19880
 491.2	19850
 491.8	19901
 492.3	19859
 492.9	19910
 493.4	19923
 493.9	19933
 494.5	19939
 495.0	19996
 495.6	19918
 496.1	19931
 496.6	19985
 497.2	19907
 497.7	19867
 498.2	19955
 498.8	19974
 499.3	19888
 499.9	19951
 500.4	19940
 500.9	19935
 501.5	19927
 502.0	20005
 502.6	19987
 503.1	20068
 503.6	20046
 504.2	20009
 504.7	20023
 505.2	20096
 505.8	20103
 506.3	20183
 506.9	20198
 507.4	20192
 507.9	20172
 508.5	20221
 509.0	20274
 509.6	20347
 510.1	20333
 510.6	20377
 511.2	20414
 511.7	20407
 512.2	20482
 512.8	20515
 513.3	20483
 513.9	20487
 514.4	20550
 514.9	20621
 515.5	20522
 516.0	20605
 516.6	20579
 517.1	20622
 517.6	20599
 518.2	20571
 518.7	20509
 519.3	20555
 519.8	20588
 520.3	20581
 520.9	20529
 521.4	20527
 521.9	20571
 522.5	20493
 523.0	20510
 523.6	20536
 524.1	20396
 524.6	20441
 525.2	20469
 525.7	20503
 526.3	20430
 526.8	20519
 527.3	20472
 527.9	20503
 528.4	20487
 528.9	20559
 529.5	20578
 530.0	20576
 530.6	20624
 531.1	20639
 531.6	20571
 532.2	20696
 532.7	20673
 533.3	20719
 533.8	20854
 534.3	20901
 534.9	20906
 535.4	20874
 536.0	20954
 536.5	21006
 537.0	20983
 537.6	21023
 538.1	21083
 538.6	21119
 539.2	21070
 539.7	21097
 540.3	21203
 540.8	21171
 541.3	21144
 541.9	21175
 542.4	21181
 543.0	21250
 543.5	21207
 544.0	21187
 544.6	21235
 545.1	21245
 545.6	21278
 546.2	21259
 546.7	21183
 547.3	21239
 547.8	21208
 548.3	21249
 548.9	21169
 549.4	21169
 550.0	21135
 550.5	21192
 551.0	21240
 551.6	21193
 552.1	21204
 552.6	21201
 553.2	21180
 553.7	21153
 554.3	21191
 554.8	21259
 555.3	21119
 555.9	21189
 556.4	21153
 556.9	21252
 557.5	21281
 558.0	21239
 558.6	21225
 559.1	21298
 559.6	21288
 560.2	21300
 560.7	21301
 561.3	21276
 561.8	21266
 562.3	21385
 562.9	21371
 563.4	21411
 563.9	21407
 564.5	21415
 565.0	21399
 565.6	21427
 566.1	21431
 566.6	21437
 567.2	21432
 567.7	21527
 568.2	21444
 568.8	21457
 569.3	21432
 569.9	21498
 570.4	21490
 570.9	21464
 571.5	21463
 572.0	21454
 572.5	21507
 573.1	21463
 573.6	21514
 574.1	21510
 574.7	21519
 575.2	21490
 575.8	21529
 576.3	21610
 576.8	21580
 577.4	21595
 577.9	21616
 578.4	21584
 579.0	21607
 579.5	21707
 580.1	21643
 580.6	21659
 581.1	21740
 581.7	21768
 582.2	21711
 582.7	21759
 583.3	21815
 583.8	21785
 584.3	21746
 584.9	21808
 585.4	21819
 586.0	21803
 586.5	21837
 587.0	21804
 587.6	21883
 588.1	21841
 588.6	21907
 589.2	21859
 589.7	21872
 590.2	21864
 590.8	21855
 591.3	21879
 591.9	21828
 592.4	21875
 592.9	21818
 593.5	21808
 594.0	21797
 594.5	21801
 595.1	21776
 595.6	21750
 596.1	21799
 596.7	21758
 597.2	21786
 597.7	21712
 598.3	21724
 598.8	21691
 599.3	21690
 599.9	21672
 600.4	21655
 601.0	21656
 601.5	21643
 602.0	21628
 602.6	21575
 603.1	21595
 603.6	21599
 604.2	21692
 604.7	21607
 605.2	21671
 605.8	21592
 606.3	21615
 606.8	21690
 607.4	21676
 607.9	21716
 608.4	21668
 609.0	21705
 609.5	21751
 610.0	21734
 610.6	21835
 611.1	21760
 611.6	21797
 612.2	21798
 612.7	21868
 613.2	21865
 613.8	21815
 614.3	21861
 614.8	21914
 615.4	21857
 615.9	21953
 616.4	22017
 617.0	21983
 617.5	22078
 618.0	22105
 618.6	22053
 619.1	22098
 619.6	22186
 620.2	22197
 620.7	22274
 621.2	22247
 621.8	22308
 622.3	22343
 622.8	22315
 623.4	22363
 623.9	22425
 624.4	22410
 625.0	22411
 625.5	22425
 626.0	22434
 626.6	22483
 627.1	22475
 627.6	22423
 628.2	22395
 628.7	22425
 629.2	22410
 629.8	22429
 630.3	22433
 630.8	22411
 631.4	22382
 631.9	22398
 632.4	22285
 632.9	22296
 633.5	22283
 634.0	22234
 634.5	22291
 635.1	22221
 635.6	22194
 636.1	22162
 636.7	22202
 637.2	22185
 637.7	22094
 638.3	22174
 638.8	22158
 639.3	22159
 639.8	22107
 640.4	22119
 640.9	22131
 641.4	22037
 642.0	22024
 642.5	22039
 643.0	22011
 643.6	22085
 644.1	22045
 644.6	22052
 645.1	22089
 645.7	22063
 646.2	22031
 646.7	22051
 647.3	22085
 647.8	22087
 648.3	22067
 648.9	22103
 649.4	22031
 649.9	22101
 650.4	22107
 651.0	22156
 651.5	22174
 652.0	22224
 652.6	22179
 653.1	22268
 653.6	22190
 654.1	22263
 654.7	22226
 655.2	22310
 655.7	22360
 656.3	22374
 656.8	22329
 657.3	22390
 657.8	22343
 658.4	22341
 658.9	22365
 659.4	22444
 659.9	22440
 660.5	22420
 661.0	22467
 661.5	22511
 662.1	22481
 662.6	22491
 663.1	22454
 663.6	22534
 664.2	22495
 664.7	22467
 665.2	22398
 665.7	22512
 666.3	22485
 666.8	22490
 667.3	22492
 667.8	22455
 668.4	22479
 668.9	22483
 669.4	22461
 669.9	22490
 670.5	22427
 671.0	22444
 671.5	22388
 672.0	22444
 672.6	22447
 673.1	22466
 673.6	22375
 674.1	22411
 674.7	22396
 675.2	22441
 675.7	22306
 676.2	22311
 676.8	22363
 677.3	22374
 677.8	22303
 678.3	22409
 678.9	22338
 679.4	22288
 679.9	22339
 680.4	22345
 681.0	22307
 681.5	22337
 682.0	22310
 682.5	22329
 683.1	22250
 683.6	22290
 684.1	22231
 684.6	22323
 685.1	22272
 685.7	22286
 686.2	22257
 686.7	22223
 687.2	22210
 687.8	22275
 688.3	22215
 688.8	22241
 689.3	22194
 689.8	22219
 690.4	22213
 690.9	22219
 691.4	22221
 691.9	22247
 692.4	22204
 693.0	22277
 693.5	22241
 694.0	22225
 694.5	22224
 695.1	22201
 695.6	22167
 696.1	22236
 696.6	22220
 697.1	22238
 697.7	22265
 698.2	22200
 698.7	22221
 699.2	22183
 699.7	22191
 700.3	22166
 700.8	22139
 701.3	22248
 701.8	22201
 702.3	22145
 702.8	22159
 703.4	22129
 703.9	22131
 704.4	22123
 704.9	22089
 705.4	22091
 706.0	22179
 706.5	22163
 707.0	22072
 707.5	22065
 708.0	22088
 708.5	22037
 709.1	22093
 709.6	22064
 710.1	22026
 710.6	21993
 711.1	21998
 711.7	22019
 712.2	22011
 712.7	22015
 713.2	21993
 713.7	21995
 714.2	21953
 714.8	22029
 715.3	21976
 715.8	21983
 716.3	21986
 716.8	21905
 717.3	21889
 717.8	21992
 718.4	22007
 718.9	21945
 719.4	22015
 719.9	21934
 720.4	21981
 720.9	21983
 721.4	21975
 722.0	22007
 722.5	21991
 723.0	21978
 723.5	21991
 724.0	21961
 724.5	21953
 725.0	21975
 725.6	21911
 726.1	21963
 726.6	22071
 727.1	22017
 727.6	22051
 728.1	22069
 728.6	22029
 729.1	22019
 729.7	22012
 730.2	22038
 730.7	22068
 731.2	22094
 731.7	22077
 732.2	22089
 732.7	22068
 733.2	22108
 733.8	22090
 734.3	22103
 734.8	22084
 735.3	22099
 735.8	22089
 736.3	22075
 736.8	22102
 737.3	22145
 737.8	22099
 738.4	22103
 738.9	22054
 739.4	22138
 739.9	22123
 740.4	22127
 740.9	22123
 741.4	22119
 741.9	22113
 742.4	22125
 742.9	22111
 743.4	22191
 744.0	22108
 744.5	22102
 745.0	22106
 745.5	22181
 746.0	22153
 746.5	22158
 747.0	22105
 747.5	22089
 748.0	22054
 748.5	22072
 749.0	22079
 749.5	22165
 750.0	22001
 750.5	22054
 751.1	22058
 751.6	22057
 752.1	22033
 752.6	21998
 753.1	22025
 753.6	21962
 754.1	21930
 754.6	21969
 755.1	21924
 755.6	21928
 756.1	21847
 756.6	21930
 757.1	21897
 757.6	21867
 758.1	21830
 758.6	21845
 759.1	21774
 759.6	21791
 760.1	21737
 760.7	21699
 761.2	21770
 761.7	21705
 762.2	21685
 762.7	21729
 763.2	21593
 763.7	21669
 764.2	21592
 764.7	21595
 765.2	21616
 765.7	21574
 766.2	21528
 766.7	21564
 767.2	21514
 767.7	21512
 768.2	21486
 768.7	21439
 769.2	21431
 769.7	21470
 770.2	21434
 770.7	21431
 771.2	21405
 771.7	21380
 772.2	21385
 772.7	21423
 773.2	21400
 773.7	21351
 774.2	21294
 774.7	21342
 775.2	21330
 775.7	21299
 776.2	21284
 776.7	21313
 777.2	21244
 777.7	21309
 778.2	21286
 778.7	21324
 779.2	21326
 779.7	21351
 780.2	21203
 780.7	21271
 781.2	21277
 781.7	21329
 782.2	21257
 782.6	21321
 783.1	21326
 783.6	21290
 784.1	21260
 784.6	21245
 785.1	21255
 785.6	21240
 786.1	21273
 786.6	21291
 787.1	21231
 787.6	21227
 788.1	21217
 788.6	21215
 789.1	21200
 789.6	21239
 790.1	21245
 790.6	21242
 791.1	21146
 791.6	21148
 792.0	21167
 792.5	21193
 793.0	21172
 793.5	21161
 794.0	21097
 794.5	21171
 795.0	21151
 795.5	21118
 796.0	21125
 796.5	21073
 797.0	21087
 797.5	21117
 798.0	20973
 798.4	21011
 798.9	20986
 799.4	21000
 799.9	20990
 800.4	20862
 800.9	20943
 801.4	20998
 801.9	20946
 802.4	20881
 802.9	20927
 803.3	20912
 803.8	20866
 804.3	20813
 804.8	20865
 805.3	20809
 805.8	20786
 806.3	20782
 806.8	20749
 807.2	20731
 807.7	20701
 808.2	20723
 808.7	20638
 809.2	20639
 809.7	20563
 810.2	20617
 810.7	20551
 811.1	20556
 811.6	20549
 812.1	20498
 812.6	20459
 813.1	20493
 813.6	20502
 814.1	20465
 814.5	20426
 815.0	20438
 815.5	20395
 816.0	20350
 816.5	20407
 817.0	20349
 817.4	20327
 817.9	20352
 818.4	20289
 818.9	20355
 819.4	20308
 819.9	20282
 820.3	20248
 820.8	20251
 821.3	20240
 821.8	20237
 822.3	20191
 822.7	20169
 823.2	20217
 823.7	20173
 824.2	20169
 824.7	20143
 825.2	20155
 825.6	20130
 826.1	20123
 826.6	20163
 827.1	20145
 827.6	20139
 828.0	20079
 828.5	20047
 829.0	20088
 829.5	20023
 829.9	20031
 830.4	20074
 830.9	20057
 831.4	20079
 831.9	20040
 832.3	20106
 832.8	20055
 833.3	20047
 833.8	20123
 834.2	20111
 834.7	19967
 835.2	20050
 835.7	20049
 836.1	20041
 836.6	20014
 837.1	20023
 837.6	20030
 838.0	20058
 838.5	20077
 839.0	20078
 839.5	20070
 839.9	19989
 840.4	19995
 840.9	19962
 841.4	19999
 841.8	20012
 842.3	20022
 842.8	20043
 843.3	20032
 843.7	19933
 844.2	19926
 844.7	20010
 845.1	19979
 845.6	19899
 846.1	19915
 846.6	19948
 847.0	19853
 847.5	19894
 848.0	19874
 848.4	19910
 848.9	19876
 849.4	19859
 849.8	19875
 850.3	19867
 850.8	19907
 851.3	19873
 851.7	19863
 852.2	19869
 852.7	19857
 853.1	19833
 853.6	19782
 854.1	19821
 854.5	19789
 855.0	19768
 855.5	19761
 855.9	19819
 856.4	19806
 856.9	19711
 857.3	19759
 857.8	19727
 858.3	19765
 858.7	19719
 859.2	19731
 859.7	19729
 860.1	19781
 860.6	19751
 861.1	19692
 861.5	19731
 862.0	19741
 862.4	19701
 862.9	19664
 863.4	19701
 863.8	19700
 864.3	19698
 864.8	19612
 865.2	19663
 865.7	19683
 866.1	19684
 866.6	19608
 867.1	19678
 867.5	19655
 868.0	19627
 868.5	19579
 868.9	19585
 869.4	19675
 869.8	19625
 870.3	19575
 870.8	19635
 871.2	19584
 871.7	19574
 872.1	19514
 872.6	19559
 873.0	19533
 873.5	19615
 874.0	19600
 874.4	19503
 874.9	19549
 875.3	19523
 875.8	19443
 876.2	19261
 876.7	19127
 877.2	18801
 877.6	18395
 878.1	17983
