#xlabel Wavelength (nm)
#ylabel Spectrometer Array Counts
#title Exposure time is 9300 ms
## lambda	counts
 349.8	16713
 350.3	16949
 350.8	17180
 351.3	17351
 351.9	17451
 352.4	17566
 352.9	17648
 353.4	17616
 354.0	17630
 354.5	17683
 355.0	17689
 355.5	17710
 356.0	17673
 356.6	17643
 357.1	17687
 357.6	17673
 358.1	17695
 358.7	17635
 359.2	17654
 359.7	17670
 360.2	17699
 360.8	17660
 361.3	17751
 361.8	17697
 362.3	17723
 362.9	17683
 363.4	17757
 363.9	17754
 364.4	17779
 364.9	17697
 365.5	17762
 366.0	17748
 366.5	17706
 367.0	17746
 367.6	17766
 368.1	17767
 368.6	17705
 369.1	17760
 369.7	17811
 370.2	17734
 370.7	17730
 371.2	17777
 371.8	17819
 372.3	17745
 372.8	17821
 373.3	17831
 373.9	17782
 374.4	17794
 374.9	17836
 375.5	17737
 376.0	17857
 376.5	17820
 377.0	17846
 377.6	17788
 378.1	17857
 378.6	17797
 379.1	17799
 379.7	17789
 380.2	17853
 380.7	17852
 381.2	17811
 381.8	17799
 382.3	17842
 382.8	17819
 383.4	17860
 383.9	17823
 384.4	17961
 384.9	17876
 385.5	17895
 386.0	17894
 386.5	17958
 387.1	17901
 387.6	17908
 388.1	17913
 388.6	17928
 389.2	17915
 389.7	17943
 390.2	17925
 390.8	18003
 391.3	17967
 391.8	17964
 392.3	17957
 392.9	17955
 393.4	17943
 393.9	18014
 394.5	18013
 395.0	17961
 395.5	17986
 396.0	17983
 396.6	17959
 397.1	18039
 397.6	18040
 398.2	18041
 398.7	18037
 399.2	18126
 399.8	18003
 400.3	18063
 400.8	18104
 401.3	18086
 401.9	18095
 402.4	18114
 402.9	18099
 403.5	18129
 404.0	18112
 404.5	18074
 405.1	18072
 405.6	18165
 406.1	18135
 406.7	18145
 407.2	18156
 407.7	18233
 408.2	18225
 408.8	18227
 409.3	18255
 409.8	18299
 410.4	18263
 410.9	18265
 411.4	18222
 412.0	18274
 412.5	18326
 413.0	18281
 413.6	18317
 414.1	18285
 414.6	18313
 415.2	18352
 415.7	18297
 416.2	18345
 416.8	18325
 417.3	18315
 417.8	18332
 418.4	18416
 418.9	18357
 419.4	18488
 420.0	18374
 420.5	18439
 421.0	18380
 421.5	18461
 422.1	18443
 422.6	18494
 423.1	18509
 423.7	18488
 424.2	18474
 424.7	18511
 425.3	18483
 425.8	18503
 426.3	18490
 426.9	18556
 427.4	18495
 427.9	18601
 428.5	18544
 429.0	18580
 429.6	18541
 430.1	18622
 430.6	18621
 431.2	18563
 431.7	18661
 432.2	18631
 432.8	18614
 433.3	18719
 433.8	18717
 434.4	18695
 434.9	18715
 435.4	18756
 436.0	18743
 436.5	18735
 437.0	18810
 437.6	18784
 438.1	18833
 438.6	18838
 439.2	18861
 439.7	18860
 440.2	18803
 440.8	18828
 441.3	18833
 441.8	18840
 442.4	18802
 442.9	18832
 443.5	18864
 444.0	18856
 444.5	18881
 445.1	18802
 445.6	18841
 446.1	18853
 446.7	18875
 447.2	18899
 447.7	18890
 448.3	18951
 448.8	18920
 449.3	18955
 449.9	18910
 450.4	19010
 450.9	19057
 451.5	19060
 452.0	19037
 452.6	19065
 453.1	19119
 453.6	19135
 454.2	19039
 454.7	19110
 455.2	19135
 455.8	19185
 456.3	19131
 456.8	19255
 457.4	19185
 457.9	19198
 458.5	19243
 459.0	19205
 459.5	19242
 460.1	19201
 460.6	19245
 461.1	19228
 461.7	19273
 462.2	19228
 462.7	19264
 463.3	19201
 463.8	19263
 464.4	19329
 464.9	19275
 465.4	19342
 466.0	19247
 466.5	19318
 467.0	19260
 467.6	19326
 468.1	19413
 468.7	19347
 469.2	19285
 469.7	19379
 470.3	19374
 470.8	19405
 471.3	19397
 471.9	19355
 472.4	19412
 473.0	19454
 473.5	19477
 474.0	19473
 474.6	19481
 475.1	19484
 475.6	19556
 476.2	19569
 476.7	19547
 477.3	19604
 477.8	19554
 478.3	19494
 478.9	19686
 479.4	19583
 479.9	19597
 480.5	19591
 481.0	19615
 481.6	19647
 482.1	19700
 482.6	19691
 483.2	19705
 483.7	19819
 484.2	19758
 484.8	19615
 485.3	19713
 485.9	19795
 486.4	19759
 486.9	19782
 487.5	19749
 488.0	19759
 488.6	19815
 489.1	19836
 489.6	19889
 490.2	19882
 490.7	19853
 491.2	19827
 491.8	19880
 492.3	19837
 492.9	19881
 493.4	19894
 493.9	19905
 494.5	19908
 495.0	19971
 495.6	19893
 496.1	19896
 496.6	19957
 497.2	19878
 497.7	19841
 498.2	19926
 498.8	19951
 499.3	19864
 499.9	19923
 500.4	19915
 500.9	19910
 501.5	19897
 502.0	19969
 502.6	19951
 503.1	20043
 503.6	20016
 504.2	19979
 504.7	19995
 505.2	20065
 505.8	20073
 506.3	20154
 506.9	20167
 507.4	20155
 507.9	20145
 508.5	20189
 509.0	20247
 509.6	20318
 510.1	20299
 510.6	20353
 511.2	20388
 511.7	20378
 512.2	20455
 512.8	20482
 513.3	20457
 513.9	20455
 514.4	20519
 514.9	20593
 515.5	20499
 516.0	20573
 516.6	20547
 517.1	20594
 517.6	20570
 518.2	20547
 518.7	20477
 519.3	20525
 519.8	20558
 520.3	20549
 520.9	20498
 521.4	20497
 521.9	20545
 522.5	20463
 523.0	20481
 523.6	20511
 524.1	20364
 524.6	20413
 525.2	20435
 525.7	20475
 526.3	20401
 526.8	20492
 527.3	20447
 527.9	20469
 528.4	20461
 528.9	20523
 529.5	20539
 530.0	20543
 530.6	20586
 531.1	20603
 531.6	20539
 532.2	20662
 532.7	20642
 533.3	20685
 533.8	20819
 534.3	20867
 534.9	20871
 535.4	20838
 536.0	20922
 536.5	20978
 537.0	20952
 537.6	20989
 538.1	21051
 538.6	21079
 539.2	21039
 539.7	21062
 540.3	21169
 540.8	21132
 541.3	21105
 541.9	21145
 542.4	21147
 543.0	21217
 543.5	21175
 544.0	21158
 544.6	21202
 545.1	21211
 545.6	21241
 546.2	21225
 546.7	21143
 547.3	21206
 547.8	21166
 548.3	21219
 548.9	21136
 549.4	21137
 550.0	21103
 550.5	21160
 551.0	21205
 551.6	21154
 552.1	21172
 552.6	21170
 553.2	21143
 553.7	21121
 554.3	21156
 554.8	21222
 555.3	21090
 555.9	21151
 556.4	21119
 556.9	21220
 557.5	21244
 558.0	21211
 558.6	21189
 559.1	21261
 559.6	21251
 560.2	21261
 560.7	21267
 561.3	21246
 561.8	21230
 562.3	21349
 562.9	21339
 563.4	21370
 563.9	21371
 564.5	21382
 565.0	21371
 565.6	21395
 566.1	21396
 566.6	21402
 567.2	21391
 567.7	21493
 568.2	21407
 568.8	21427
 569.3	21396
 569.9	21460
 570.4	21455
 570.9	21427
 571.5	21426
 572.0	21420
 572.5	21477
 573.1	21428
 573.6	21480
 574.1	21476
 574.7	21480
 575.2	21453
 575.8	21495
 576.3	21573
 576.8	21549
 577.4	21559
 577.9	21586
 578.4	21553
 579.0	21567
 579.5	21666
 580.1	21599
 580.6	21621
 581.1	21707
 581.7	21730
 582.2	21673
 582.7	21728
 583.3	21777
 583.8	21747
 584.3	21710
 584.9	21767
 585.4	21785
 586.0	21763
 586.5	21801
 587.0	21769
 587.6	21842
 588.1	21803
 588.6	21871
 589.2	21823
 589.7	21835
 590.2	21825
 590.8	21823
 591.3	21843
 591.9	21795
 592.4	21848
 592.9	21780
 593.5	21771
 594.0	21763
 594.5	21767
 595.1	21745
 595.6	21718
 596.1	21765
 596.7	21715
 597.2	21754
 597.7	21684
 598.3	21687
 598.8	21655
 599.3	21658
 599.9	21637
 600.4	21626
 601.0	21627
 601.5	21604
 602.0	21595
 602.6	21548
 603.1	21563
 603.6	21562
 604.2	21655
 604.7	21566
 605.2	21635
 605.8	21555
 606.3	21579
 606.8	21652
 607.4	21636
 607.9	21679
 608.4	21629
 609.0	21671
 609.5	21718
 610.0	21700
 610.6	21796
 611.1	21729
 611.6	21762
 612.2	21765
 612.7	21833
 613.2	21832
 613.8	21779
 614.3	21817
 614.8	21873
 615.4	21821
 615.9	21918
 616.4	21979
 617.0	21947
 617.5	22038
 618.0	22073
 618.6	22008
 619.1	22060
 619.6	22148
 620.2	22161
 620.7	22233
 621.2	22205
 621.8	22263
 622.3	22303
 622.8	22279
 623.4	22317
 623.9	22383
 624.4	22371
 625.0	22370
 625.5	22379
 626.0	22386
 626.6	22439
 627.1	22431
 627.6	22382
 628.2	22351
 628.7	22385
 629.2	22365
 629.8	22387
 630.3	22390
 630.8	22372
 631.4	22347
 631.9	22355
 632.4	22241
 632.9	22251
 633.5	22246
 634.0	22198
 634.5	22263
 635.1	22188
 635.6	22151
 636.1	22125
 636.7	22168
 637.2	22151
 637.7	22053
 638.3	22134
 638.8	22122
 639.3	22123
 639.8	22072
 640.4	22078
 640.9	22091
 641.4	22005
 642.0	21986
 642.5	21998
 643.0	21971
 643.6	22049
 644.1	22003
 644.6	22016
 645.1	22049
 645.7	22027
 646.2	21992
 646.7	22011
 647.3	22043
 647.8	22044
 648.3	22029
 648.9	22070
 649.4	21992
 649.9	22063
 650.4	22067
 651.0	22119
 651.5	22137
 652.0	22188
 652.6	22141
 653.1	22227
 653.6	22153
 654.1	22227
 654.7	22183
 655.2	22271
 655.7	22316
 656.3	22338
 656.8	22290
 657.3	22355
 657.8	22309
 658.4	22309
 658.9	22319
 659.4	22405
 659.9	22405
 660.5	22377
 661.0	22427
 661.5	22475
 662.1	22439
 662.6	22459
 663.1	22425
 663.6	22491
 664.2	22456
 664.7	22429
 665.2	22360
 665.7	22477
 666.3	22449
 666.8	22451
 667.3	22453
 667.8	22414
 668.4	22438
 668.9	22442
 669.4	22420
 669.9	22451
 670.5	22383
 671.0	22400
 671.5	22351
 672.0	22403
 672.6	22406
 673.1	22426
 673.6	22338
 674.1	22372
 674.7	22360
 675.2	22403
 675.7	22264
 676.2	22271
 676.8	22330
 677.3	22344
 677.8	22263
 678.3	22365
 678.9	22301
 679.4	22245
 679.9	22304
 680.4	22303
 681.0	22266
 681.5	22301
 682.0	22267
 682.5	22294
 683.1	22211
 683.6	22251
 684.1	22193
 684.6	22285
 685.1	22231
 685.7	22245
 686.2	22218
 686.7	22187
 687.2	22172
 687.8	22235
 688.3	22178
 688.8	22207
 689.3	22153
 689.8	22180
 690.4	22175
 690.9	22187
 691.4	22190
 691.9	22208
 692.4	22164
 693.0	22234
 693.5	22203
 694.0	22189
 694.5	22179
 695.1	22170
 695.6	22130
 696.1	22199
 696.6	22185
 697.1	22203
 697.7	22224
 698.2	22157
 698.7	22186
 699.2	22150
 699.7	22152
 700.3	22134
 700.8	22102
 701.3	22209
 701.8	22167
 702.3	22108
 702.8	22123
 703.4	22087
 703.9	22089
 704.4	22091
 704.9	22051
 705.4	22053
 706.0	22141
 706.5	22123
 707.0	22041
 707.5	22025
 708.0	22053
 708.5	22005
 709.1	22059
 709.6	22025
 710.1	21987
 710.6	21959
 711.1	21963
 711.7	21975
 712.2	21971
 712.7	21979
 713.2	21955
 713.7	21957
 714.2	21916
 714.8	21991
 715.3	21941
 715.8	21940
 716.3	21949
 716.8	21869
 717.3	21855
 717.8	21955
 718.4	21971
 718.9	21909
 719.4	21985
 719.9	21900
 720.4	21943
 720.9	21951
 721.4	21947
 722.0	21973
 722.5	21959
 723.0	21943
 723.5	21957
 724.0	21917
 724.5	21916
 725.0	21943
 725.6	21879
 726.1	21928
 726.6	22033
 727.1	21981
 727.6	22018
 728.1	22037
 728.6	21993
 729.1	21982
 729.7	21973
 730.2	21999
 730.7	22037
 731.2	22061
 731.7	22043
 732.2	22050
 732.7	22033
 733.2	22074
 733.8	22047
 734.3	22071
 734.8	22046
 735.3	22067
 735.8	22058
 736.3	22033
 736.8	22069
 737.3	22111
 737.8	22064
 738.4	22063
 738.9	22019
 739.4	22107
 739.9	22087
 740.4	22098
 740.9	22085
 741.4	22081
 741.9	22075
 742.4	22093
 742.9	22077
 743.4	22158
 744.0	22070
 744.5	22068
 745.0	22074
 745.5	22142
 746.0	22113
 746.5	22125
 747.0	22071
 747.5	22051
 748.0	22024
 748.5	22039
 749.0	22046
 749.5	22130
 750.0	21969
 750.5	22021
 751.1	22021
 751.6	22021
 752.1	22003
 752.6	21969
 753.1	21991
 753.6	21927
 754.1	21894
 754.6	21932
 755.1	21885
 755.6	21886
 756.1	21810
 756.6	21896
 757.1	21860
 757.6	21833
 758.1	21802
 758.6	21806
 759.1	21731
 759.6	21761
 760.1	21703
 760.7	21667
 761.2	21733
 761.7	21671
 762.2	21653
 762.7	21699
 763.2	21557
 763.7	21630
 764.2	21558
 764.7	21561
 765.2	21582
 765.7	21544
 766.2	21495
 766.7	21531
 767.2	21478
 767.7	21477
 768.2	21451
 768.7	21415
 769.2	21403
 769.7	21435
 770.2	21407
 770.7	21400
 771.2	21380
 771.7	21349
 772.2	21353
 772.7	21397
 773.2	21367
 773.7	21322
 774.2	21259
 774.7	21306
 775.2	21301
 775.7	21275
 776.2	21258
 776.7	21285
 777.2	21213
 777.7	21277
 778.2	21255
 778.7	21292
 779.2	21294
 779.7	21326
 780.2	21171
 780.7	21240
 781.2	21241
 781.7	21303
 782.2	21222
 782.6	21288
 783.1	21293
 783.6	21258
 784.1	21224
 784.6	21214
 785.1	21223
 785.6	21210
 786.1	21239
 786.6	21255
 787.1	21202
 787.6	21202
 788.1	21191
 788.6	21185
 789.1	21173
 789.6	21209
 790.1	21215
 790.6	21211
 791.1	21118
 791.6	21114
 792.0	21133
 792.5	21167
 793.0	21145
 793.5	21127
 794.0	21067
 794.5	21143
 795.0	21124
 795.5	21087
 796.0	21098
 796.5	21042
 797.0	21064
 797.5	21093
 798.0	20945
 798.4	20978
 798.9	20961
 799.4	20969
 799.9	20964
 800.4	20829
 800.9	20914
 801.4	20969
 801.9	20919
 802.4	20844
 802.9	20897
 803.3	20885
 803.8	20843
 804.3	20785
 804.8	20838
 805.3	20781
 805.8	20755
 806.3	20753
 806.8	20719
 807.2	20704
 807.7	20679
 808.2	20691
 808.7	20614
 809.2	20611
 809.7	20539
 810.2	20595
 810.7	20522
 811.1	20529
 811.6	20523
 812.1	20474
 812.6	20434
 813.1	20471
 813.6	20475
 814.1	20451
 814.5	20407
 815.0	20409
 815.5	20375
 816.0	20319
 816.5	20375
 817.0	20324
 817.4	20299
 817.9	20330
 818.4	20269
 818.9	20329
 819.4	20282
 819.9	20262
 820.3	20220
 820.8	20225
 821.3	20213
 821.8	20211
 822.3	20170
 822.7	20145
 823.2	20195
 823.7	20146
 824.2	20145
 824.7	20122
 825.2	20133
 825.6	20106
 826.1	20099
 826.6	20138
 827.1	20127
 827.6	20112
 828.0	20058
 828.5	20021
 829.0	20059
 829.5	20003
 829.9	20002
 830.4	20050
 830.9	20036
 831.4	20057
 831.9	20017
 832.3	20087
 832.8	20039
 833.3	20017
 833.8	20102
 834.2	20092
 834.7	19943
 835.2	20029
 835.7	20028
 836.1	20014
 836.6	19992
 837.1	20002
 837.6	20009
 838.0	20031
 838.5	20052
 839.0	20054
 839.5	20041
 839.9	19969
 840.4	19971
 840.9	19937
 841.4	19975
 841.8	19988
 842.3	20000
 842.8	20020
 843.3	20009
 843.7	19911
 844.2	19898
 844.7	19985
 845.1	19957
 845.6	19875
 846.1	19898
 846.6	19926
 847.0	19833
 847.5	19869
 848.0	19852
 848.4	19891
 848.9	19855
 849.4	19839
 849.8	19855
 850.3	19845
 850.8	19891
 851.3	19853
 851.7	19842
 852.2	19846
 852.7	19839
 853.1	19810
 853.6	19755
 854.1	19795
 854.5	19764
 855.0	19745
 855.5	19735
 855.9	19789
 856.4	19779
 856.9	19692
 857.3	19739
 857.8	19711
 858.3	19746
 858.7	19698
 859.2	19713
 859.7	19707
 860.1	19757
 860.6	19731
 861.1	19675
 861.5	19707
 862.0	19719
 862.4	19679
 862.9	19646
 863.4	19683
 863.8	19683
 864.3	19674
 864.8	19593
 865.2	19639
 865.7	19661
 866.1	19660
 866.6	19587
 867.1	19654
 867.5	19635
 868.0	19611
 868.5	19557
 868.9	19566
 869.4	19662
 869.8	19608
 870.3	19569
 870.8	19631
 871.2	19580
 871.7	19569
 872.1	19516
 872.6	19562
 873.0	19531
 873.5	19599
 874.0	19575
 874.4	19461
 874.9	19483
 875.3	19434
 875.8	19339
 876.2	19141
 876.7	19011
 877.2	18705
 877.6	18325
 878.1	17958
