#xlabel Wavelength (nm)
#ylabel Spectrometer Array Counts
#title Exposure time is 9300 ms
## lambda	counts
 349.8	16717
 350.3	16955
 350.8	17187
 351.3	17365
 351.9	17459
 352.4	17571
 352.9	17658
 353.4	17631
 354.0	17640
 354.5	17681
 355.0	17694
 355.5	17715
 356.0	17678
 356.6	17643
 357.1	17687
 357.6	17669
 358.1	17697
 358.7	17636
 359.2	17656
 359.7	17669
 360.2	17697
 360.8	17662
 361.3	17755
 361.8	17703
 362.3	17729
 362.9	17689
 363.4	17760
 363.9	17759
 364.4	17785
 364.9	17701
 365.5	17768
 366.0	17754
 366.5	17712
 367.0	17749
 367.6	17769
 368.1	17769
 368.6	17710
 369.1	17763
 369.7	17811
 370.2	17737
 370.7	17733
 371.2	17783
 371.8	17826
 372.3	17751
 372.8	17823
 373.3	17835
 373.9	17788
 374.4	17794
 374.9	17844
 375.5	17744
 376.0	17861
 376.5	17827
 377.0	17845
 377.6	17791
 378.1	17861
 378.6	17804
 379.1	17809
 379.7	17791
 380.2	17854
 380.7	17857
 381.2	17819
 381.8	17803
 382.3	17843
 382.8	17826
 383.4	17866
 383.9	17823
 384.4	17965
 384.9	17882
 385.5	17903
 386.0	17897
 386.5	17965
 387.1	17898
 387.6	17915
 388.1	17922
 388.6	17933
 389.2	17924
 389.7	17943
 390.2	17926
 390.8	18011
 391.3	17978
 391.8	17972
 392.3	17959
 392.9	17955
 393.4	17949
 393.9	18021
 394.5	18021
 395.0	17968
 395.5	17993
 396.0	17990
 396.6	17962
 397.1	18045
 397.6	18041
 398.2	18046
 398.7	18046
 399.2	18131
 399.8	18006
 400.3	18071
 400.8	18114
 401.3	18095
 401.9	18103
 402.4	18117
 402.9	18109
 403.5	18134
 404.0	18123
 404.5	18075
 405.1	18078
 405.6	18170
 406.1	18146
 406.7	18156
 407.2	18161
 407.7	18240
 408.2	18233
 408.8	18237
 409.3	18264
 409.8	18305
 410.4	18271
 410.9	18271
 411.4	18227
 412.0	18284
 412.5	18328
 413.0	18291
 413.6	18328
 414.1	18292
 414.6	18325
 415.2	18363
 415.7	18301
 416.2	18358
 416.8	18337
 417.3	18319
 417.8	18343
 418.4	18428
 418.9	18363
 419.4	18495
 420.0	18385
 420.5	18446
 421.0	18394
 421.5	18470
 422.1	18455
 422.6	18504
 423.1	18522
 423.7	18498
 424.2	18489
 424.7	18526
 425.3	18490
 425.8	18513
 426.3	18507
 426.9	18563
 427.4	18503
 427.9	18606
 428.5	18555
 429.0	18587
 429.6	18554
 430.1	18627
 430.6	18626
 431.2	18575
 431.7	18667
 432.2	18636
 432.8	18619
 433.3	18723
 433.8	18731
 434.4	18705
 434.9	18719
 435.4	18769
 436.0	18751
 436.5	18746
 437.0	18824
 437.6	18797
 438.1	18845
 438.6	18849
 439.2	18879
 439.7	18869
 440.2	18820
 440.8	18839
 441.3	18843
 441.8	18850
 442.4	18810
 442.9	18844
 443.5	18873
 444.0	18865
 444.5	18893
 445.1	18814
 445.6	18855
 446.1	18866
 446.7	18885
 447.2	18908
 447.7	18901
 448.3	18964
 448.8	18928
 449.3	18970
 449.9	18924
 450.4	19025
 450.9	19060
 451.5	19068
 452.0	19046
 452.6	19078
 453.1	19127
 453.6	19149
 454.2	19044
 454.7	19122
 455.2	19143
 455.8	19193
 456.3	19141
 456.8	19268
 457.4	19197
 457.9	19209
 458.5	19258
 459.0	19219
 459.5	19255
 460.1	19211
 460.6	19254
 461.1	19242
 461.7	19286
 462.2	19243
 462.7	19282
 463.3	19210
 463.8	19280
 464.4	19344
 464.9	19291
 465.4	19351
 466.0	19264
 466.5	19332
 467.0	19269
 467.6	19340
 468.1	19425
 468.7	19359
 469.2	19303
 469.7	19397
 470.3	19384
 470.8	19419
 471.3	19407
 471.9	19367
 472.4	19427
 473.0	19475
 473.5	19487
 474.0	19486
 474.6	19498
 475.1	19497
 475.6	19566
 476.2	19583
 476.7	19566
 477.3	19619
 477.8	19567
 478.3	19509
 478.9	19700
 479.4	19599
 479.9	19615
 480.5	19604
 481.0	19631
 481.6	19661
 482.1	19721
 482.6	19707
 483.2	19719
 483.7	19837
 484.2	19775
 484.8	19636
 485.3	19726
 485.9	19803
 486.4	19777
 486.9	19797
 487.5	19765
 488.0	19780
 488.6	19836
 489.1	19852
 489.6	19900
 490.2	19901
 490.7	19867
 491.2	19840
 491.8	19892
 492.3	19848
 492.9	19900
 493.4	19911
 493.9	19925
 494.5	19925
 495.0	19989
 495.6	19913
 496.1	19919
 496.6	19976
 497.2	19896
 497.7	19861
 498.2	19945
 498.8	19967
 499.3	19876
 499.9	19940
 500.4	19932
 500.9	19925
 501.5	19915
 502.0	19991
 502.6	19974
 503.1	20060
 503.6	20038
 504.2	19999
 504.7	20013
 505.2	20087
 505.8	20091
 506.3	20179
 506.9	20191
 507.4	20179
 507.9	20164
 508.5	20209
 509.0	20266
 509.6	20337
 510.1	20324
 510.6	20371
 511.2	20406
 511.7	20398
 512.2	20479
 512.8	20505
 513.3	20479
 513.9	20483
 514.4	20545
 514.9	20614
 515.5	20522
 516.0	20596
 516.6	20565
 517.1	20611
 517.6	20585
 518.2	20567
 518.7	20505
 519.3	20547
 519.8	20580
 520.3	20569
 520.9	20519
 521.4	20511
 521.9	20560
 522.5	20485
 523.0	20496
 523.6	20527
 524.1	20389
 524.6	20436
 525.2	20458
 525.7	20493
 526.3	20419
 526.8	20509
 527.3	20462
 527.9	20492
 528.4	20483
 528.9	20549
 529.5	20570
 530.0	20561
 530.6	20613
 531.1	20631
 531.6	20565
 532.2	20687
 532.7	20661
 533.3	20711
 533.8	20844
 534.3	20886
 534.9	20903
 535.4	20860
 536.0	20947
 536.5	21000
 537.0	20977
 537.6	21016
 538.1	21072
 538.6	21103
 539.2	21058
 539.7	21082
 540.3	21195
 540.8	21163
 541.3	21131
 541.9	21164
 542.4	21171
 543.0	21234
 543.5	21199
 544.0	21182
 544.6	21232
 545.1	21234
 545.6	21274
 546.2	21255
 546.7	21169
 547.3	21225
 547.8	21195
 548.3	21243
 548.9	21161
 549.4	21163
 550.0	21129
 550.5	21186
 551.0	21230
 551.6	21179
 552.1	21191
 552.6	21191
 553.2	21172
 553.7	21143
 554.3	21173
 554.8	21244
 555.3	21111
 555.9	21176
 556.4	21142
 556.9	21244
 557.5	21269
 558.0	21237
 558.6	21215
 559.1	21285
 559.6	21277
 560.2	21286
 560.7	21290
 561.3	21269
 561.8	21258
 562.3	21374
 562.9	21362
 563.4	21397
 563.9	21397
 564.5	21407
 565.0	21397
 565.6	21417
 566.1	21420
 566.6	21423
 567.2	21417
 567.7	21521
 568.2	21438
 568.8	21450
 569.3	21423
 569.9	21487
 570.4	21481
 570.9	21453
 571.5	21450
 572.0	21445
 572.5	21503
 573.1	21449
 573.6	21505
 574.1	21499
 574.7	21508
 575.2	21485
 575.8	21518
 576.3	21599
 576.8	21569
 577.4	21587
 577.9	21610
 578.4	21572
 579.0	21595
 579.5	21696
 580.1	21627
 580.6	21645
 581.1	21735
 581.7	21755
 582.2	21697
 582.7	21752
 583.3	21802
 583.8	21774
 584.3	21737
 584.9	21799
 585.4	21811
 586.0	21789
 586.5	21828
 587.0	21796
 587.6	21869
 588.1	21831
 588.6	21901
 589.2	21850
 589.7	21863
 590.2	21851
 590.8	21847
 591.3	21877
 591.9	21818
 592.4	21874
 592.9	21810
 593.5	21798
 594.0	21789
 594.5	21798
 595.1	21769
 595.6	21741
 596.1	21789
 596.7	21743
 597.2	21779
 597.7	21706
 598.3	21715
 598.8	21682
 599.3	21687
 599.9	21661
 600.4	21653
 601.0	21650
 601.5	21634
 602.0	21621
 602.6	21572
 603.1	21593
 603.6	21589
 604.2	21685
 604.7	21591
 605.2	21663
 605.8	21583
 606.3	21603
 606.8	21685
 607.4	21666
 607.9	21705
 608.4	21656
 609.0	21696
 609.5	21742
 610.0	21727
 610.6	21819
 611.1	21755
 611.6	21786
 612.2	21790
 612.7	21861
 613.2	21856
 613.8	21805
 614.3	21843
 614.8	21901
 615.4	21850
 615.9	21944
 616.4	22007
 617.0	21971
 617.5	22069
 618.0	22099
 618.6	22041
 619.1	22090
 619.6	22179
 620.2	22191
 620.7	22260
 621.2	22237
 621.8	22297
 622.3	22333
 622.8	22301
 623.4	22348
 623.9	22413
 624.4	22397
 625.0	22397
 625.5	22413
 626.0	22423
 626.6	22474
 627.1	22467
 627.6	22414
 628.2	22379
 628.7	22419
 629.2	22399
 629.8	22417
 630.3	22421
 630.8	22401
 631.4	22372
 631.9	22386
 632.4	22276
 632.9	22285
 633.5	22271
 634.0	22221
 634.5	22287
 635.1	22214
 635.6	22183
 636.1	22157
 636.7	22192
 637.2	22179
 637.7	22084
 638.3	22163
 638.8	22151
 639.3	22152
 639.8	22093
 640.4	22104
 640.9	22120
 641.4	22028
 642.0	22014
 642.5	22027
 643.0	21999
 643.6	22075
 644.1	22034
 644.6	22045
 645.1	22079
 645.7	22058
 646.2	22017
 646.7	22041
 647.3	22073
 647.8	22071
 648.3	22054
 648.9	22095
 649.4	22019
 649.9	22092
 650.4	22099
 651.0	22148
 651.5	22165
 652.0	22213
 652.6	22167
 653.1	22252
 653.6	22182
 654.1	22257
 654.7	22217
 655.2	22302
 655.7	22343
 656.3	22362
 656.8	22316
 657.3	22380
 657.8	22337
 658.4	22335
 658.9	22348
 659.4	22433
 659.9	22430
 660.5	22413
 661.0	22454
 661.5	22502
 662.1	22462
 662.6	22477
 663.1	22449
 663.6	22527
 664.2	22482
 664.7	22459
 665.2	22386
 665.7	22502
 666.3	22471
 666.8	22477
 667.3	22482
 667.8	22443
 668.4	22469
 668.9	22473
 669.4	22449
 669.9	22477
 670.5	22415
 671.0	22431
 671.5	22382
 672.0	22437
 672.6	22430
 673.1	22455
 673.6	22371
 674.1	22400
 674.7	22387
 675.2	22431
 675.7	22296
 676.2	22295
 676.8	22354
 677.3	22367
 677.8	22294
 678.3	22396
 678.9	22325
 679.4	22273
 679.9	22330
 680.4	22335
 681.0	22297
 681.5	22323
 682.0	22297
 682.5	22319
 683.1	22235
 683.6	22278
 684.1	22215
 684.6	22313
 685.1	22259
 685.7	22271
 686.2	22244
 686.7	22217
 687.2	22193
 687.8	22264
 688.3	22207
 688.8	22235
 689.3	22173
 689.8	22204
 690.4	22203
 690.9	22209
 691.4	22215
 691.9	22235
 692.4	22191
 693.0	22259
 693.5	22232
 694.0	22214
 694.5	22210
 695.1	22192
 695.6	22159
 696.1	22223
 696.6	22211
 697.1	22228
 697.7	22256
 698.2	22183
 698.7	22217
 699.2	22175
 699.7	22181
 700.3	22154
 700.8	22133
 701.3	22241
 701.8	22192
 702.3	22139
 702.8	22143
 703.4	22118
 703.9	22121
 704.4	22112
 704.9	22072
 705.4	22079
 706.0	22166
 706.5	22152
 707.0	22066
 707.5	22053
 708.0	22074
 708.5	22025
 709.1	22086
 709.6	22047
 710.1	22011
 710.6	21987
 711.1	21982
 711.7	22005
 712.2	21996
 712.7	22006
 713.2	21981
 713.7	21986
 714.2	21942
 714.8	22014
 715.3	21969
 715.8	21971
 716.3	21971
 716.8	21893
 717.3	21876
 717.8	21983
 718.4	21997
 718.9	21939
 719.4	22008
 719.9	21925
 720.4	21969
 720.9	21977
 721.4	21971
 722.0	21995
 722.5	21982
 723.0	21973
 723.5	21976
 724.0	21951
 724.5	21945
 725.0	21962
 725.6	21907
 726.1	21950
 726.6	22058
 727.1	22003
 727.6	22040
 728.1	22061
 728.6	22019
 729.1	22007
 729.7	21995
 730.2	22023
 730.7	22059
 731.2	22084
 731.7	22073
 732.2	22077
 732.7	22057
 733.2	22096
 733.8	22076
 734.3	22091
 734.8	22074
 735.3	22091
 735.8	22080
 736.3	22063
 736.8	22092
 737.3	22135
 737.8	22087
 738.4	22089
 738.9	22043
 739.4	22125
 739.9	22115
 740.4	22123
 740.9	22114
 741.4	22105
 741.9	22101
 742.4	22118
 742.9	22101
 743.4	22179
 744.0	22092
 744.5	22097
 745.0	22097
 745.5	22170
 746.0	22136
 746.5	22149
 747.0	22094
 747.5	22080
 748.0	22044
 748.5	22063
 749.0	22075
 749.5	22151
 750.0	21997
 750.5	22047
 751.1	22045
 751.6	22042
 752.1	22024
 752.6	21994
 753.1	22022
 753.6	21955
 754.1	21917
 754.6	21959
 755.1	21912
 755.6	21911
 756.1	21837
 756.6	21923
 757.1	21884
 757.6	21865
 758.1	21820
 758.6	21832
 759.1	21761
 759.6	21784
 760.1	21721
 760.7	21689
 761.2	21755
 761.7	21695
 762.2	21676
 762.7	21723
 763.2	21581
 763.7	21651
 764.2	21585
 764.7	21582
 765.2	21607
 765.7	21565
 766.2	21514
 766.7	21553
 767.2	21502
 767.7	21503
 768.2	21475
 768.7	21439
 769.2	21422
 769.7	21460
 770.2	21422
 770.7	21422
 771.2	21399
 771.7	21368
 772.2	21377
 772.7	21411
 773.2	21391
 773.7	21343
 774.2	21284
 774.7	21331
 775.2	21326
 775.7	21291
 776.2	21281
 776.7	21301
 777.2	21231
 777.7	21302
 778.2	21278
 778.7	21317
 779.2	21314
 779.7	21343
 780.2	21192
 780.7	21260
 781.2	21263
 781.7	21322
 782.2	21245
 782.6	21313
 783.1	21317
 783.6	21278
 784.1	21243
 784.6	21238
 785.1	21249
 785.6	21233
 786.1	21266
 786.6	21279
 787.1	21219
 787.6	21222
 788.1	21207
 788.6	21203
 789.1	21194
 789.6	21223
 790.1	21233
 790.6	21232
 791.1	21139
 791.6	21138
 792.0	21155
 792.5	21186
 793.0	21161
 793.5	21153
 794.0	21084
 794.5	21159
 795.0	21143
 795.5	21109
 796.0	21114
 796.5	21063
 797.0	21081
 797.5	21110
 798.0	20965
 798.4	21000
 798.9	20981
 799.4	20984
 799.9	20983
 800.4	20858
 800.9	20938
 801.4	20987
 801.9	20936
 802.4	20865
 802.9	20918
 803.3	20903
 803.8	20857
 804.3	20804
 804.8	20854
 805.3	20804
 805.8	20778
 806.3	20770
 806.8	20743
 807.2	20719
 807.7	20689
 808.2	20709
 808.7	20627
 809.2	20626
 809.7	20559
 810.2	20611
 810.7	20536
 811.1	20548
 811.6	20539
 812.1	20493
 812.6	20440
 813.1	20485
 813.6	20493
 814.1	20460
 814.5	20414
 815.0	20428
 815.5	20381
 816.0	20338
 816.5	20397
 817.0	20338
 817.4	20315
 817.9	20341
 818.4	20277
 818.9	20343
 819.4	20297
 819.9	20272
 820.3	20239
 820.8	20235
 821.3	20227
 821.8	20227
 822.3	20185
 822.7	20160
 823.2	20212
 823.7	20163
 824.2	20155
 824.7	20135
 825.2	20145
 825.6	20119
 826.1	20111
 826.6	20153
 827.1	20136
 827.6	20128
 828.0	20068
 828.5	20036
 829.0	20070
 829.5	20015
 829.9	20018
 830.4	20062
 830.9	20045
 831.4	20065
 831.9	20025
 832.3	20102
 832.8	20050
 833.3	20036
 833.8	20111
 834.2	20106
 834.7	19952
 835.2	20042
 835.7	20033
 836.1	20027
 836.6	20006
 837.1	20014
 837.6	20022
 838.0	20047
 838.5	20063
 839.0	20073
 839.5	20054
 839.9	19983
 840.4	19985
 840.9	19949
 841.4	19988
 841.8	19999
 842.3	20013
 842.8	20031
 843.3	20023
 843.7	19924
 844.2	19908
 844.7	19998
 845.1	19967
 845.6	19890
 846.1	19908
 846.6	19939
 847.0	19845
 847.5	19881
 848.0	19863
 848.4	19901
 848.9	19863
 849.4	19849
 849.8	19865
 850.3	19858
 850.8	19901
 851.3	19866
 851.7	19855
 852.2	19857
 852.7	19850
 853.1	19822
 853.6	19770
 854.1	19807
 854.5	19775
 855.0	19757
 855.5	19749
 855.9	19801
 856.4	19792
 856.9	19699
 857.3	19750
 857.8	19719
 858.3	19758
 858.7	19709
 859.2	19715
 859.7	19714
 860.1	19765
 860.6	19738
 861.1	19679
 861.5	19721
 862.0	19725
 862.4	19689
 862.9	19655
 863.4	19696
 863.8	19693
 864.3	19687
 864.8	19605
 865.2	19653
 865.7	19669
 866.1	19675
 866.6	19597
 867.1	19665
 867.5	19645
 868.0	19621
 868.5	19567
 868.9	19575
 869.4	19668
 869.8	19618
 870.3	19569
 870.8	19635
 871.2	19585
 871.7	19579
 872.1	19522
 872.6	19565
 873.0	19535
 873.5	19609
 874.0	19590
 874.4	19470
 874.9	19497
 875.3	19455
 875.8	19359
 876.2	19163
 876.7	19027
 877.2	18722
 877.6	18336
 878.1	17971
