#xlabel Wavelength (nm)
#ylabel Spectrometer Array Counts
#title Exposure time is 10000 ms
## lambda	counts
 349.8	16954
 350.3	17218
 350.8	17469
 351.3	17660
 351.9	17757
 352.4	17868
 352.9	17932
 353.4	17897
 354.0	17893
 354.5	17930
 355.0	17938
 355.5	17946
 356.0	17911
 356.6	17879
 357.1	17933
 357.6	17912
 358.1	17943
 358.7	17884
 359.2	17899
 359.7	17922
 360.2	17959
 360.8	17928
 361.3	18027
 361.8	17971
 362.3	18004
 362.9	17962
 363.4	18042
 363.9	18045
 364.4	18069
 364.9	17986
 365.5	18056
 366.0	18044
 366.5	18007
 367.0	18053
 367.6	18083
 368.1	18085
 368.6	18020
 369.1	18077
 369.7	18134
 370.2	18063
 370.7	18062
 371.2	18111
 371.8	18169
 372.3	18093
 372.8	18174
 373.3	18189
 373.9	18143
 374.4	18162
 374.9	18221
 375.5	18116
 376.0	18243
 376.5	18215
 377.0	18241
 377.6	18193
 378.1	18283
 378.6	18222
 379.1	18229
 379.7	18223
 380.2	18301
 380.7	18308
 381.2	18273
 381.8	18275
 382.3	18317
 382.8	18307
 383.4	18352
 383.9	18313
 384.4	18465
 384.9	18381
 385.5	18402
 386.0	18406
 386.5	18483
 387.1	18422
 387.6	18447
 388.1	18452
 388.6	18480
 389.2	18471
 389.7	18503
 390.2	18494
 390.8	18590
 391.3	18571
 391.8	18582
 392.3	18581
 392.9	18590
 393.4	18593
 393.9	18683
 394.5	18698
 395.0	18657
 395.5	18691
 396.0	18703
 396.6	18676
 397.1	18781
 397.6	18779
 398.2	18796
 398.7	18801
 399.2	18894
 399.8	18776
 400.3	18843
 400.8	18895
 401.3	18873
 401.9	18895
 402.4	18925
 402.9	18921
 403.5	18958
 404.0	18954
 404.5	18924
 405.1	18944
 405.6	19051
 406.1	19040
 406.7	19061
 407.2	19086
 407.7	19177
 408.2	19190
 408.8	19213
 409.3	19255
 409.8	19313
 410.4	19291
 410.9	19317
 411.4	19276
 412.0	19353
 412.5	19410
 413.0	19379
 413.6	19434
 414.1	19417
 414.6	19457
 415.2	19509
 415.7	19464
 416.2	19527
 416.8	19523
 417.3	19523
 417.8	19551
 418.4	19654
 418.9	19612
 419.4	19750
 420.0	19655
 420.5	19732
 421.0	19687
 421.5	19783
 422.1	19773
 422.6	19840
 423.1	19871
 423.7	19853
 424.2	19848
 424.7	19891
 425.3	19883
 425.8	19921
 426.3	19909
 426.9	19986
 427.4	19941
 427.9	20057
 428.5	20015
 429.0	20077
 429.6	20049
 430.1	20150
 430.6	20174
 431.2	20148
 431.7	20267
 432.2	20271
 432.8	20273
 433.3	20411
 433.8	20441
 434.4	20452
 434.9	20495
 435.4	20569
 436.0	20575
 436.5	20601
 437.0	20686
 437.6	20686
 438.1	20751
 438.6	20766
 439.2	20809
 439.7	20805
 440.2	20759
 440.8	20795
 441.3	20808
 441.8	20810
 442.4	20782
 442.9	20809
 443.5	20847
 444.0	20847
 444.5	20880
 445.1	20805
 445.6	20841
 446.1	20888
 446.7	20921
 447.2	20959
 447.7	20973
 448.3	21068
 448.8	21068
 449.3	21133
 449.9	21121
 450.4	21261
 450.9	21340
 451.5	21384
 452.0	21403
 452.6	21462
 453.1	21567
 453.6	21619
 454.2	21559
 454.7	21675
 455.2	21734
 455.8	21812
 456.3	21783
 456.8	21931
 457.4	21887
 457.9	21919
 458.5	21974
 459.0	21951
 459.5	21996
 460.1	21961
 460.6	22011
 461.1	21999
 461.7	22052
 462.2	22011
 462.7	22049
 463.3	21993
 463.8	22061
 464.4	22132
 464.9	22090
 465.4	22168
 466.0	22095
 466.5	22179
 467.0	22139
 467.6	22231
 468.1	22335
 468.7	22299
 469.2	22267
 469.7	22387
 470.3	22405
 470.8	22479
 471.3	22482
 471.9	22490
 472.4	22569
 473.0	22645
 473.5	22698
 474.0	22721
 474.6	22761
 475.1	22781
 475.6	22886
 476.2	22916
 476.7	22921
 477.3	23004
 477.8	22977
 478.3	22935
 478.9	23147
 479.4	23081
 479.9	23117
 480.5	23129
 481.0	23191
 481.6	23242
 482.1	23333
 482.6	23352
 483.2	23392
 483.7	23533
 484.2	23503
 484.8	23393
 485.3	23519
 485.9	23619
 486.4	23616
 486.9	23666
 487.5	23656
 488.0	23696
 488.6	23779
 489.1	23821
 489.6	23891
 490.2	23905
 490.7	23895
 491.2	23878
 491.8	23950
 492.3	23916
 492.9	23981
 493.4	23995
 493.9	24016
 494.5	24023
 495.0	24078
 495.6	24000
 496.1	24012
 496.6	24060
 497.2	23985
 497.7	23955
 498.2	24027
 498.8	24040
 499.3	23975
 499.9	24026
 500.4	24033
 500.9	24031
 501.5	24046
 502.0	24145
 502.6	24156
 503.1	24275
 503.6	24279
 504.2	24283
 504.7	24340
 505.2	24451
 505.8	24497
 506.3	24639
 506.9	24716
 507.4	24761
 507.9	24809
 508.5	24907
 509.0	25023
 509.6	25157
 510.1	25197
 510.6	25299
 511.2	25379
 511.7	25439
 512.2	25551
 512.8	25632
 513.3	25653
 513.9	25691
 514.4	25773
 514.9	25885
 515.5	25805
 516.0	25891
 516.6	25855
 517.1	25901
 517.6	25873
 518.2	25838
 518.7	25753
 519.3	25784
 519.8	25787
 520.3	25756
 520.9	25691
 521.4	25672
 521.9	25690
 522.5	25584
 523.0	25573
 523.6	25585
 524.1	25435
 524.6	25473
 525.2	25491
 525.7	25531
 526.3	25474
 526.8	25580
 527.3	25547
 527.9	25596
 528.4	25610
 528.9	25701
 529.5	25749
 530.0	25785
 530.6	25879
 531.1	25944
 531.6	25923
 532.2	26088
 532.7	26126
 533.3	26233
 533.8	26411
 534.3	26523
 534.9	26586
 535.4	26625
 536.0	26759
 536.5	26867
 537.0	26909
 537.6	26998
 538.1	27112
 538.6	27192
 539.2	27195
 539.7	27269
 540.3	27399
 540.8	27405
 541.3	27408
 541.9	27468
 542.4	27506
 543.0	27584
 543.5	27561
 544.0	27545
 544.6	27585
 545.1	27608
 545.6	27635
 546.2	27624
 546.7	27522
 547.3	27584
 547.8	27555
 548.3	27588
 548.9	27494
 549.4	27485
 550.0	27447
 550.5	27505
 551.0	27529
 551.6	27477
 552.1	27487
 552.6	27492
 553.2	27446
 553.7	27429
 554.3	27465
 554.8	27541
 555.3	27415
 555.9	27486
 556.4	27470
 556.9	27587
 557.5	27624
 558.0	27615
 558.6	27619
 559.1	27705
 559.6	27716
 560.2	27758
 560.7	27791
 561.3	27792
 561.8	27805
 562.3	27950
 562.9	27955
 563.4	28030
 563.9	28034
 564.5	28077
 565.0	28082
 565.6	28119
 566.1	28138
 566.6	28156
 567.2	28161
 567.7	28259
 568.2	28210
 568.8	28215
 569.3	28216
 569.9	28275
 570.4	28265
 570.9	28254
 571.5	28255
 572.0	28273
 572.5	28337
 573.1	28305
 573.6	28379
 574.1	28383
 574.7	28406
 575.2	28407
 575.8	28474
 576.3	28568
 576.8	28563
 577.4	28602
 577.9	28652
 578.4	28665
 579.0	28705
 579.5	28841
 580.1	28806
 580.6	28869
 581.1	28987
 581.7	29045
 582.2	29034
 582.7	29107
 583.3	29178
 583.8	29189
 584.3	29172
 584.9	29264
 585.4	29291
 586.0	29302
 586.5	29367
 587.0	29365
 587.6	29457
 588.1	29433
 588.6	29516
 589.2	29478
 589.7	29513
 590.2	29514
 590.8	29496
 591.3	29524
 591.9	29466
 592.4	29502
 592.9	29429
 593.5	29403
 594.0	29375
 594.5	29359
 595.1	29301
 595.6	29253
 596.1	29273
 596.7	29216
 597.2	29216
 597.7	29131
 598.3	29118
 598.8	29069
 599.3	29040
 599.9	28973
 600.4	28943
 601.0	28931
 601.5	28905
 602.0	28879
 602.6	28829
 603.1	28838
 603.6	28843
 604.2	28928
 604.7	28862
 605.2	28937
 605.8	28861
 606.3	28907
 606.8	28987
 607.4	29006
 607.9	29070
 608.4	29042
 609.0	29113
 609.5	29184
 610.0	29199
 610.6	29313
 611.1	29275
 611.6	29363
 612.2	29398
 612.7	29499
 613.2	29535
 613.8	29523
 614.3	29609
 614.8	29697
 615.4	29707
 615.9	29850
 616.4	29967
 617.0	29974
 617.5	30099
 618.0	30194
 618.6	30218
 619.1	30328
 619.6	30462
 620.2	30555
 620.7	30700
 621.2	30745
 621.8	30849
 622.3	30951
 622.8	30989
 623.4	31074
 623.9	31179
 624.4	31202
 625.0	31235
 625.5	31249
 626.0	31282
 626.6	31348
 627.1	31330
 627.6	31288
 628.2	31259
 628.7	31299
 629.2	31271
 629.8	31279
 630.3	31254
 630.8	31217
 631.4	31158
 631.9	31128
 632.4	30989
 632.9	30945
 633.5	30899
 634.0	30811
 634.5	30815
 635.1	30715
 635.6	30663
 636.1	30599
 636.7	30561
 637.2	30521
 637.7	30379
 638.3	30428
 638.8	30372
 639.3	30348
 639.8	30255
 640.4	30243
 640.9	30239
 641.4	30131
 642.0	30083
 642.5	30079
 643.0	30048
 643.6	30113
 644.1	30057
 644.6	30070
 645.1	30081
 645.7	30085
 646.2	30039
 646.7	30066
 647.3	30087
 647.8	30119
 648.3	30096
 648.9	30157
 649.4	30097
 649.9	30185
 650.4	30220
 651.0	30287
 651.5	30329
 652.0	30412
 652.6	30399
 653.1	30505
 653.6	30459
 654.1	30550
 654.7	30559
 655.2	30675
 655.7	30742
 656.3	30785
 656.8	30784
 657.3	30872
 657.8	30860
 658.4	30901
 658.9	30951
 659.4	31036
 659.9	31063
 660.5	31067
 661.0	31132
 661.5	31191
 662.1	31179
 662.6	31196
 663.1	31186
 663.6	31273
 664.2	31229
 664.7	31217
 665.2	31165
 665.7	31265
 666.3	31227
 666.8	31223
 667.3	31223
 667.8	31187
 668.4	31201
 668.9	31203
 669.4	31166
 669.9	31179
 670.5	31099
 671.0	31109
 671.5	31059
 672.0	31078
 672.6	31062
 673.1	31083
 673.6	30986
 674.1	30990
 674.7	30976
 675.2	31000
 675.7	30866
 676.2	30841
 676.8	30890
 677.3	30886
 677.8	30799
 678.3	30871
 678.9	30802
 679.4	30731
 679.9	30773
 680.4	30755
 681.0	30707
 681.5	30726
 682.0	30669
 682.5	30691
 683.1	30596
 683.6	30611
 684.1	30549
 684.6	30639
 685.1	30581
 685.7	30585
 686.2	30554
 686.7	30508
 687.2	30503
 687.8	30551
 688.3	30493
 688.8	30511
 689.3	30453
 689.8	30487
 690.4	30471
 690.9	30489
 691.4	30508
 691.9	30514
 692.4	30491
 693.0	30555
 693.5	30526
 694.0	30519
 694.5	30513
 695.1	30499
 695.6	30459
 696.1	30531
 696.6	30518
 697.1	30540
 697.7	30566
 698.2	30499
 698.7	30527
 699.2	30490
 699.7	30491
 700.3	30446
 700.8	30425
 701.3	30500
 701.8	30462
 702.3	30397
 702.8	30398
 703.4	30381
 703.9	30351
 704.4	30313
 704.9	30271
 705.4	30262
 706.0	30313
 706.5	30272
 707.0	30183
 707.5	30157
 708.0	30152
 708.5	30089
 709.1	30128
 709.6	30077
 710.1	30013
 710.6	29981
 711.1	29949
 711.7	29947
 712.2	29921
 712.7	29911
 713.2	29864
 713.7	29857
 714.2	29804
 714.8	29875
 715.3	29817
 715.8	29805
 716.3	29801
 716.8	29738
 717.3	29710
 717.8	29803
 718.4	29815
 718.9	29759
 719.4	29835
 719.9	29747
 720.4	29793
 720.9	29821
 721.4	29809
 722.0	29837
 722.5	29831
 723.0	29835
 723.5	29847
 724.0	29825
 724.5	29816
 725.0	29859
 725.6	29805
 726.1	29865
 726.6	29975
 727.1	29917
 727.6	29960
 728.1	29991
 728.6	29947
 729.1	29947
 729.7	29943
 730.2	29963
 730.7	29992
 731.2	30021
 731.7	30017
 732.2	30036
 732.7	30003
 733.2	30041
 733.8	30013
 734.3	30042
 734.8	30038
 735.3	30076
 735.8	30082
 736.3	30080
 736.8	30128
 737.3	30183
 737.8	30141
 738.4	30155
 738.9	30118
 739.4	30207
 739.9	30195
 740.4	30224
 740.9	30197
 741.4	30202
 741.9	30198
 742.4	30213
 742.9	30199
 743.4	30262
 744.0	30168
 744.5	30146
 745.0	30147
 745.5	30198
 746.0	30157
 746.5	30163
 747.0	30095
 747.5	30061
 748.0	30025
 748.5	30033
 749.0	30021
 749.5	30081
 750.0	29910
 750.5	29936
 751.1	29909
 751.6	29881
 752.1	29844
 752.6	29787
 753.1	29802
 753.6	29724
 754.1	29667
 754.6	29671
 755.1	29595
 755.6	29573
 756.1	29466
 756.6	29515
 757.1	29466
 757.6	29409
 758.1	29338
 758.6	29302
 759.1	29199
 759.6	29199
 760.1	29119
 760.7	29041
 761.2	29079
 761.7	29010
 762.2	28961
 762.7	28962
 763.2	28813
 763.7	28848
 764.2	28749
 764.7	28705
 765.2	28689
 765.7	28611
 766.2	28543
 766.7	28539
 767.2	28444
 767.7	28403
 768.2	28342
 768.7	28273
 769.2	28220
 769.7	28224
 770.2	28174
 770.7	28136
 771.2	28090
 771.7	28039
 772.2	28021
 772.7	28041
 773.2	27989
 773.7	27922
 774.2	27850
 774.7	27868
 775.2	27827
 775.7	27792
 776.2	27755
 776.7	27767
 777.2	27681
 777.7	27733
 778.2	27689
 778.7	27715
 779.2	27698
 779.7	27714
 780.2	27555
 780.7	27602
 781.2	27587
 781.7	27626
 782.2	27553
 782.6	27610
 783.1	27595
 783.6	27550
 784.1	27505
 784.6	27491
 785.1	27494
 785.6	27487
 786.1	27490
 786.6	27498
 787.1	27442
 787.6	27418
 788.1	27399
 788.6	27372
 789.1	27347
 789.6	27353
 790.1	27352
 790.6	27329
 791.1	27227
 791.6	27207
 792.0	27197
 792.5	27200
 793.0	27150
 793.5	27123
 794.0	27045
 794.5	27098
 795.0	27033
 795.5	26991
 796.0	26969
 796.5	26887
 797.0	26869
 797.5	26868
 798.0	26695
 798.4	26685
 798.9	26634
 799.4	26603
 799.9	26567
 800.4	26402
 800.9	26448
 801.4	26448
 801.9	26362
 802.4	26238
 802.9	26247
 803.3	26199
 803.8	26122
 804.3	26030
 804.8	26028
 805.3	25937
 805.8	25868
 806.3	25811
 806.8	25754
 807.2	25693
 807.7	25622
 808.2	25597
 808.7	25475
 809.2	25432
 809.7	25329
 810.2	25351
 810.7	25243
 811.1	25203
 811.6	25157
 812.1	25065
 812.6	24991
 813.1	24996
 813.6	24971
 814.1	24913
 814.5	24838
 815.0	24817
 815.5	24737
 816.0	24661
 816.5	24682
 817.0	24601
 817.4	24551
 817.9	24548
 818.4	24445
 818.9	24494
 819.4	24423
 819.9	24370
 820.3	24317
 820.8	24284
 821.3	24258
 821.8	24234
 822.3	24153
 822.7	24114
 823.2	24147
 823.7	24075
 824.2	24053
 824.7	24009
 825.2	23996
 825.6	23952
 826.1	23929
 826.6	23961
 827.1	23915
 827.6	23895
 828.0	23821
 828.5	23781
 829.0	23794
 829.5	23724
 829.9	23711
 830.4	23743
 830.9	23703
 831.4	23717
 831.9	23657
 832.3	23715
 832.8	23641
 833.3	23635
 833.8	23687
 834.2	23664
 834.7	23513
 835.2	23590
 835.7	23573
 836.1	23555
 836.6	23525
 837.1	23517
 837.6	23509
 838.0	23526
 838.5	23536
 839.0	23526
 839.5	23507
 839.9	23420
 840.4	23419
 840.9	23372
 841.4	23401
 841.8	23411
 842.3	23401
 842.8	23411
 843.3	23400
 843.7	23289
 844.2	23266
 844.7	23329
 845.1	23296
 845.6	23213
 846.1	23215
 846.6	23237
 847.0	23133
 847.5	23166
 848.0	23133
 848.4	23151
 848.9	23097
 849.4	23062
 849.8	23066
 850.3	23051
 850.8	23079
 851.3	23022
 851.7	23002
 852.2	22988
 852.7	22968
 853.1	22930
 853.6	22861
 854.1	22882
 854.5	22833
 855.0	22803
 855.5	22778
 855.9	22814
 856.4	22779
 856.9	22687
 857.3	22714
 857.8	22660
 858.3	22664
 858.7	22598
 859.2	22606
 859.7	22607
 860.1	22645
 860.6	22600
 861.1	22525
 861.5	22555
 862.0	22534
 862.4	22487
 862.9	22436
 863.4	22458
 863.8	22448
 864.3	22426
 864.8	22331
 865.2	22355
 865.7	22362
 866.1	22357
 866.6	22255
 867.1	22317
 867.5	22284
 868.0	22242
 868.5	22178
 868.9	22156
 869.4	22229
 869.8	22175
 870.3	22113
 870.8	22163
 871.2	22102
 871.7	22076
 872.1	22006
 872.6	22041
 873.0	22003
 873.5	22060
 874.0	22038
 874.4	21925
 874.9	21946
 875.3	21895
 875.8	21797
 876.2	21586
 876.7	21410
 877.2	21046
 877.6	20581
 878.1	20092
