#xlabel Wavelength (nm)
#ylabel Spectrometer Array Counts
#title Exposure time is 10000 ms
## lambda	counts
 349.8	16802
 350.3	17047
 350.8	17289
 351.3	17468
 351.9	17569
 352.4	17690
 352.9	17763
 353.4	17739
 354.0	17743
 354.5	17780
 355.0	17790
 355.5	17809
 356.0	17761
 356.6	17732
 357.1	17779
 357.6	17754
 358.1	17779
 358.7	17719
 359.2	17729
 359.7	17748
 360.2	17776
 360.8	17747
 361.3	17840
 361.8	17779
 362.3	17810
 362.9	17764
 363.4	17836
 363.9	17840
 364.4	17869
 364.9	17774
 365.5	17845
 366.0	17831
 366.5	17785
 367.0	17833
 367.6	17856
 368.1	17843
 368.6	17781
 369.1	17840
 369.7	17885
 370.2	17809
 370.7	17809
 371.2	17851
 371.8	17901
 372.3	17826
 372.8	17898
 373.3	17906
 373.9	17851
 374.4	17865
 374.9	17914
 375.5	17816
 376.0	17931
 376.5	17895
 377.0	17915
 377.6	17857
 378.1	17939
 378.6	17870
 379.1	17870
 379.7	17859
 380.2	17921
 380.7	17925
 381.2	17882
 381.8	17875
 382.3	17910
 382.8	17893
 383.4	17937
 383.9	17887
 384.4	18036
 384.9	17947
 385.5	17965
 386.0	17963
 386.5	18034
 387.1	17960
 387.6	17982
 388.1	17986
 388.6	17998
 389.2	17982
 389.7	18006
 390.2	17983
 390.8	18071
 391.3	18037
 391.8	18039
 392.3	18022
 392.9	18016
 393.4	18007
 393.9	18074
 394.5	18075
 395.0	18026
 395.5	18047
 396.0	18046
 396.6	18015
 397.1	18105
 397.6	18099
 398.2	18105
 398.7	18101
 399.2	18192
 399.8	18070
 400.3	18133
 400.8	18173
 401.3	18149
 401.9	18163
 402.4	18180
 402.9	18171
 403.5	18197
 404.0	18189
 404.5	18135
 405.1	18138
 405.6	18233
 406.1	18207
 406.7	18212
 407.2	18221
 407.7	18298
 408.2	18296
 408.8	18293
 409.3	18323
 409.8	18372
 410.4	18327
 410.9	18333
 411.4	18282
 412.0	18343
 412.5	18394
 413.0	18343
 413.6	18386
 414.1	18353
 414.6	18390
 415.2	18423
 415.7	18361
 416.2	18409
 416.8	18397
 417.3	18382
 417.8	18399
 418.4	18488
 418.9	18430
 419.4	18554
 420.0	18443
 420.5	18516
 421.0	18453
 421.5	18534
 422.1	18520
 422.6	18569
 423.1	18593
 423.7	18559
 424.2	18543
 424.7	18584
 425.3	18562
 425.8	18579
 426.3	18573
 426.9	18628
 427.4	18572
 427.9	18675
 428.5	18619
 429.0	18666
 429.6	18622
 430.1	18693
 430.6	18699
 431.2	18642
 431.7	18743
 432.2	18718
 432.8	18690
 433.3	18797
 433.8	18803
 434.4	18782
 434.9	18799
 435.4	18843
 436.0	18831
 436.5	18831
 437.0	18897
 437.6	18879
 438.1	18930
 438.6	18932
 439.2	18964
 439.7	18952
 440.2	18899
 440.8	18929
 441.3	18934
 441.8	18938
 442.4	18907
 442.9	18934
 443.5	18964
 444.0	18959
 444.5	18987
 445.1	18906
 445.6	18936
 446.1	18963
 446.7	18982
 447.2	19001
 447.7	18993
 448.3	19065
 448.8	19026
 449.3	19067
 449.9	19025
 450.4	19122
 450.9	19165
 451.5	19172
 452.0	19145
 452.6	19175
 453.1	19232
 453.6	19250
 454.2	19151
 454.7	19237
 455.2	19257
 455.8	19309
 456.3	19256
 456.8	19379
 457.4	19310
 457.9	19329
 458.5	19374
 459.0	19339
 459.5	19380
 460.1	19334
 460.6	19379
 461.1	19361
 461.7	19411
 462.2	19365
 462.7	19407
 463.3	19335
 463.8	19405
 464.4	19467
 464.9	19422
 465.4	19484
 466.0	19394
 466.5	19468
 467.0	19405
 467.6	19474
 468.1	19560
 468.7	19497
 469.2	19439
 469.7	19530
 470.3	19515
 470.8	19561
 471.3	19547
 471.9	19511
 472.4	19567
 473.0	19613
 473.5	19635
 474.0	19632
 474.6	19648
 475.1	19642
 475.6	19717
 476.2	19732
 476.7	19713
 477.3	19775
 477.8	19722
 478.3	19665
 478.9	19857
 479.4	19760
 479.9	19773
 480.5	19766
 481.0	19795
 481.6	19818
 482.1	19885
 482.6	19877
 483.2	19888
 483.7	20007
 484.2	19943
 484.8	19798
 485.3	19899
 485.9	19980
 486.4	19949
 486.9	19974
 487.5	19944
 488.0	19953
 488.6	20014
 489.1	20030
 489.6	20087
 490.2	20090
 490.7	20052
 491.2	20025
 491.8	20081
 492.3	20038
 492.9	20090
 493.4	20102
 493.9	20119
 494.5	20119
 495.0	20183
 495.6	20101
 496.1	20113
 496.6	20172
 497.2	20089
 497.7	20051
 498.2	20142
 498.8	20156
 499.3	20083
 499.9	20129
 500.4	20129
 500.9	20119
 501.5	20110
 502.0	20183
 502.6	20173
 503.1	20260
 503.6	20235
 504.2	20198
 504.7	20217
 505.2	20287
 505.8	20291
 506.3	20382
 506.9	20402
 507.4	20383
 507.9	20383
 508.5	20429
 509.0	20482
 509.6	20557
 510.1	20544
 510.6	20594
 511.2	20630
 511.7	20629
 512.2	20710
 512.8	20737
 513.3	20713
 513.9	20721
 514.4	20775
 514.9	20853
 515.5	20765
 516.0	20839
 516.6	20812
 517.1	20862
 517.6	20835
 518.2	20811
 518.7	20748
 519.3	20790
 519.8	20826
 520.3	20813
 520.9	20765
 521.4	20770
 521.9	20811
 522.5	20734
 523.0	20741
 523.6	20772
 524.1	20627
 524.6	20675
 525.2	20698
 525.7	20732
 526.3	20659
 526.8	20749
 527.3	20704
 527.9	20731
 528.4	20721
 528.9	20785
 529.5	20809
 530.0	20801
 530.6	20859
 531.1	20879
 531.6	20811
 532.2	20939
 532.7	20915
 533.3	20966
 533.8	21097
 534.3	21145
 534.9	21161
 535.4	21126
 536.0	21210
 536.5	21269
 537.0	21253
 537.6	21286
 538.1	21351
 538.6	21383
 539.2	21343
 539.7	21369
 540.3	21479
 540.8	21457
 541.3	21421
 541.9	21459
 542.4	21468
 543.0	21534
 543.5	21500
 544.0	21488
 544.6	21525
 545.1	21535
 545.6	21576
 546.2	21552
 546.7	21462
 547.3	21522
 547.8	21496
 548.3	21540
 548.9	21456
 549.4	21458
 550.0	21427
 550.5	21486
 551.0	21527
 551.6	21473
 552.1	21490
 552.6	21495
 553.2	21461
 553.7	21437
 554.3	21476
 554.8	21543
 555.3	21411
 555.9	21480
 556.4	21439
 556.9	21541
 557.5	21569
 558.0	21529
 558.6	21512
 559.1	21592
 559.6	21582
 560.2	21589
 560.7	21594
 561.3	21574
 561.8	21565
 562.3	21685
 562.9	21669
 563.4	21707
 563.9	21709
 564.5	21713
 565.0	21709
 565.6	21734
 566.1	21739
 566.6	21746
 567.2	21737
 567.7	21836
 568.2	21753
 568.8	21769
 569.3	21744
 569.9	21813
 570.4	21798
 570.9	21774
 571.5	21771
 572.0	21767
 572.5	21827
 573.1	21771
 573.6	21831
 574.1	21822
 574.7	21827
 575.2	21806
 575.8	21844
 576.3	21925
 576.8	21897
 577.4	21917
 577.9	21934
 578.4	21907
 579.0	21922
 579.5	22032
 580.1	21963
 580.6	21986
 581.1	22066
 581.7	22095
 582.2	22045
 582.7	22094
 583.3	22141
 583.8	22124
 584.3	22084
 584.9	22140
 585.4	22147
 586.0	22141
 586.5	22176
 587.0	22145
 587.6	22224
 588.1	22179
 588.6	22252
 589.2	22207
 589.7	22221
 590.2	22211
 590.8	22207
 591.3	22231
 591.9	22179
 592.4	22229
 592.9	22161
 593.5	22155
 594.0	22147
 594.5	22147
 595.1	22126
 595.6	22095
 596.1	22143
 596.7	22095
 597.2	22130
 597.7	22062
 598.3	22060
 598.8	22031
 599.3	22035
 599.9	22000
 600.4	21987
 601.0	21990
 601.5	21970
 602.0	21961
 602.6	21911
 603.1	21924
 603.6	21929
 604.2	22017
 604.7	21930
 605.2	21995
 605.8	21917
 606.3	21945
 606.8	22016
 607.4	22002
 607.9	22044
 608.4	21999
 609.0	22033
 609.5	22089
 610.0	22068
 610.6	22169
 611.1	22089
 611.6	22133
 612.2	22136
 612.7	22208
 613.2	22207
 613.8	22151
 614.3	22199
 614.8	22251
 615.4	22204
 615.9	22295
 616.4	22366
 617.0	22334
 617.5	22433
 618.0	22461
 618.6	22407
 619.1	22454
 619.6	22546
 620.2	22558
 620.7	22638
 621.2	22615
 621.8	22669
 622.3	22712
 622.8	22690
 623.4	22735
 623.9	22802
 624.4	22786
 625.0	22795
 625.5	22801
 626.0	22823
 626.6	22867
 627.1	22857
 627.6	22814
 628.2	22779
 628.7	22811
 629.2	22794
 629.8	22819
 630.3	22818
 630.8	22794
 631.4	22763
 631.9	22778
 632.4	22665
 632.9	22673
 633.5	22661
 634.0	22603
 634.5	22673
 635.1	22592
 635.6	22567
 636.1	22531
 636.7	22569
 637.2	22549
 637.7	22459
 638.3	22536
 638.8	22513
 639.3	22517
 639.8	22459
 640.4	22467
 640.9	22479
 641.4	22387
 642.0	22376
 642.5	22388
 643.0	22357
 643.6	22428
 644.1	22386
 644.6	22397
 645.1	22425
 645.7	22406
 646.2	22371
 646.7	22391
 647.3	22422
 647.8	22427
 648.3	22403
 648.9	22443
 649.4	22363
 649.9	22440
 650.4	22451
 651.0	22497
 651.5	22514
 652.0	22570
 652.6	22519
 653.1	22611
 653.6	22526
 654.1	22605
 654.7	22570
 655.2	22654
 655.7	22699
 656.3	22718
 656.8	22668
 657.3	22734
 657.8	22692
 658.4	22697
 658.9	22711
 659.4	22790
 659.9	22793
 660.5	22770
 661.0	22817
 661.5	22862
 662.1	22831
 662.6	22846
 663.1	22809
 663.6	22886
 664.2	22851
 664.7	22820
 665.2	22758
 665.7	22863
 666.3	22839
 666.8	22847
 667.3	22843
 667.8	22808
 668.4	22834
 668.9	22833
 669.4	22811
 669.9	22841
 670.5	22775
 671.0	22789
 671.5	22738
 672.0	22799
 672.6	22795
 673.1	22819
 673.6	22731
 674.1	22756
 674.7	22743
 675.2	22789
 675.7	22652
 676.2	22653
 676.8	22706
 677.3	22719
 677.8	22645
 678.3	22748
 678.9	22679
 679.4	22620
 679.9	22672
 680.4	22683
 681.0	22635
 681.5	22678
 682.0	22638
 682.5	22660
 683.1	22580
 683.6	22622
 684.1	22561
 684.6	22654
 685.1	22599
 685.7	22616
 686.2	22589
 686.7	22551
 687.2	22541
 687.8	22609
 688.3	22549
 688.8	22576
 689.3	22515
 689.8	22544
 690.4	22540
 690.9	22547
 691.4	22548
 691.9	22574
 692.4	22535
 693.0	22606
 693.5	22579
 694.0	22557
 694.5	22550
 695.1	22527
 695.6	22499
 696.1	22565
 696.6	22551
 697.1	22566
 697.7	22596
 698.2	22534
 698.7	22551
 699.2	22515
 699.7	22525
 700.3	22499
 700.8	22477
 701.3	22577
 701.8	22539
 702.3	22480
 702.8	22484
 703.4	22457
 703.9	22466
 704.4	22452
 704.9	22416
 705.4	22420
 706.0	22499
 706.5	22487
 707.0	22399
 707.5	22392
 708.0	22410
 708.5	22362
 709.1	22420
 709.6	22381
 710.1	22343
 710.6	22322
 711.1	22317
 711.7	22335
 712.2	22331
 712.7	22333
 713.2	22311
 713.7	22307
 714.2	22267
 714.8	22345
 715.3	22296
 715.8	22294
 716.3	22301
 716.8	22217
 717.3	22202
 717.8	22307
 718.4	22324
 718.9	22261
 719.4	22331
 719.9	22250
 720.4	22292
 720.9	22301
 721.4	22301
 722.0	22321
 722.5	22309
 723.0	22295
 723.5	22307
 724.0	22277
 724.5	22274
 725.0	22289
 725.6	22227
 726.1	22283
 726.6	22392
 727.1	22331
 727.6	22373
 728.1	22385
 728.6	22347
 729.1	22337
 729.7	22327
 730.2	22347
 730.7	22385
 731.2	22406
 731.7	22398
 732.2	22405
 732.7	22385
 733.2	22424
 733.8	22402
 734.3	22419
 734.8	22395
 735.3	22414
 735.8	22415
 736.3	22393
 736.8	22424
 737.3	22467
 737.8	22420
 738.4	22417
 738.9	22369
 739.4	22458
 739.9	22436
 740.4	22452
 740.9	22440
 741.4	22436
 741.9	22433
 742.4	22454
 742.9	22429
 743.4	22509
 744.0	22423
 744.5	22415
 745.0	22426
 745.5	22499
 746.0	22474
 746.5	22476
 747.0	22419
 747.5	22401
 748.0	22369
 748.5	22381
 749.0	22396
 749.5	22475
 750.0	22311
 750.5	22366
 751.1	22365
 751.6	22361
 752.1	22347
 752.6	22310
 753.1	22337
 753.6	22258
 754.1	22231
 754.6	22273
 755.1	22219
 755.6	22224
 756.1	22136
 756.6	22225
 757.1	22189
 757.6	22162
 758.1	22122
 758.6	22133
 759.1	22051
 759.6	22083
 760.1	22023
 760.7	21985
 761.2	22057
 761.7	21995
 762.2	21974
 762.7	22015
 763.2	21871
 763.7	21949
 764.2	21877
 764.7	21867
 765.2	21891
 765.7	21853
 766.2	21808
 766.7	21842
 767.2	21789
 767.7	21788
 768.2	21755
 768.7	21711
 769.2	21701
 769.7	21737
 770.2	21703
 770.7	21689
 771.2	21668
 771.7	21635
 772.2	21645
 772.7	21681
 773.2	21657
 773.7	21608
 774.2	21550
 774.7	21596
 775.2	21580
 775.7	21551
 776.2	21539
 776.7	21563
 777.2	21487
 777.7	21560
 778.2	21537
 778.7	21566
 779.2	21573
 779.7	21592
 780.2	21445
 780.7	21508
 781.2	21508
 781.7	21573
 782.2	21491
 782.6	21567
 783.1	21568
 783.6	21527
 784.1	21494
 784.6	21481
 785.1	21489
 785.6	21481
 786.1	21511
 786.6	21523
 787.1	21465
 787.6	21473
 788.1	21453
 788.6	21444
 789.1	21433
 789.6	21463
 790.1	21471
 790.6	21462
 791.1	21370
 791.6	21371
 792.0	21391
 792.5	21421
 793.0	21395
 793.5	21380
 794.0	21315
 794.5	21395
 795.0	21370
 795.5	21341
 796.0	21345
 796.5	21289
 797.0	21302
 797.5	21335
 798.0	21185
 798.4	21226
 798.9	21196
 799.4	21205
 799.9	21203
 800.4	21067
 800.9	21151
 801.4	21201
 801.9	21149
 802.4	21070
 802.9	21125
 803.3	21107
 803.8	21069
 804.3	21010
 804.8	21055
 805.3	21002
 805.8	20983
 806.3	20970
 806.8	20941
 807.2	20922
 807.7	20889
 808.2	20907
 808.7	20816
 809.2	20817
 809.7	20745
 810.2	20801
 810.7	20729
 811.1	20734
 811.6	20721
 812.1	20669
 812.6	20625
 813.1	20658
 813.6	20671
 814.1	20642
 814.5	20594
 815.0	20607
 815.5	20562
 816.0	20510
 816.5	20569
 817.0	20514
 817.4	20490
 817.9	20515
 818.4	20444
 818.9	20517
 819.4	20461
 819.9	20438
 820.3	20404
 820.8	20395
 821.3	20393
 821.8	20408
 822.3	20337
 822.7	20321
 823.2	20369
 823.7	20323
 824.2	20313
 824.7	20298
 825.2	20301
 825.6	20275
 826.1	20267
 826.6	20309
 827.1	20293
 827.6	20285
 828.0	20221
 828.5	20194
 829.0	20230
 829.5	20168
 829.9	20170
 830.4	20226
 830.9	20200
 831.4	20219
 831.9	20176
 832.3	20247
 832.8	20183
 833.3	20187
 833.8	20261
 834.2	20250
 834.7	20095
 835.2	20193
 835.7	20184
 836.1	20172
 836.6	20156
 837.1	20155
 837.6	20158
 838.0	20194
 838.5	20211
 839.0	20211
 839.5	20197
 839.9	20121
 840.4	20129
 840.9	20090
 841.4	20131
 841.8	20150
 842.3	20151
 842.8	20171
 843.3	20171
 843.7	20066
 844.2	20053
 844.7	20138
 845.1	20104
 845.6	20023
 846.1	20051
 846.6	20077
 847.0	19977
 847.5	20028
 848.0	20005
 848.4	20040
 848.9	20000
 849.4	19986
 849.8	20005
 850.3	19993
 850.8	20037
 851.3	19995
 851.7	19986
 852.2	19990
 852.7	19979
 853.1	19954
 853.6	19902
 854.1	19939
 854.5	19902
 855.0	19887
 855.5	19881
 855.9	19933
 856.4	19919
 856.9	19830
 857.3	19882
 857.8	19853
 858.3	19886
 858.7	19831
 859.2	19845
 859.7	19845
 860.1	19897
 860.6	19872
 861.1	19807
 861.5	19851
 862.0	19853
 862.4	19820
 862.9	19779
 863.4	19819
 863.8	19819
 864.3	19808
 864.8	19727
 865.2	19771
 865.7	19797
 866.1	19803
 866.6	19717
 867.1	19794
 867.5	19775
 868.0	19745
 868.5	19698
 868.9	19693
 869.4	19788
 869.8	19742
 870.3	19701
 870.8	19763
 871.2	19714
 871.7	19708
 872.1	19653
 872.6	19707
 873.0	19679
 873.5	19754
 874.0	19741
 874.4	19633
 874.9	19666
 875.3	19615
 875.8	19521
 876.2	19326
 876.7	19183
 877.2	18865
 877.6	18468
 878.1	18079
