#xlabel Wavelength (nm)
#ylabel Spectrometer Array Counts
#title Exposure time is 10000 ms
## lambda	counts
 349.8	16861
 350.3	17141
 350.8	17402
 351.3	17588
 351.9	17689
 352.4	17800
 352.9	17859
 353.4	17816
 354.0	17809
 354.5	17840
 355.0	17839
 355.5	17844
 356.0	17800
 356.6	17764
 357.1	17811
 357.6	17787
 358.1	17814
 358.7	17751
 359.2	17761
 359.7	17777
 360.2	17812
 360.8	17777
 361.3	17871
 361.8	17819
 362.3	17847
 362.9	17804
 363.4	17875
 363.9	17877
 364.4	17901
 364.9	17811
 365.5	17880
 366.0	17867
 366.5	17820
 367.0	17865
 367.6	17884
 368.1	17882
 368.6	17813
 369.1	17875
 369.7	17923
 370.2	17849
 370.7	17846
 371.2	17886
 371.8	17941
 372.3	17858
 372.8	17937
 373.3	17943
 373.9	17889
 374.4	17901
 374.9	17954
 375.5	17849
 376.0	17967
 376.5	17931
 377.0	17949
 377.6	17893
 378.1	17975
 378.6	17903
 379.1	17906
 379.7	17887
 380.2	17961
 380.7	17958
 381.2	17916
 381.8	17911
 382.3	17949
 382.8	17927
 383.4	17972
 383.9	17920
 384.4	18069
 384.9	17980
 385.5	17998
 386.0	17995
 386.5	18067
 387.1	17999
 387.6	18020
 388.1	18022
 388.6	18030
 389.2	18020
 389.7	18041
 390.2	18022
 390.8	18098
 391.3	18066
 391.8	18070
 392.3	18056
 392.9	18050
 393.4	18041
 393.9	18109
 394.5	18109
 395.0	18064
 395.5	18081
 396.0	18082
 396.6	18052
 397.1	18138
 397.6	18129
 398.2	18135
 398.7	18138
 399.2	18223
 399.8	18099
 400.3	18163
 400.8	18207
 401.3	18177
 401.9	18195
 402.4	18213
 402.9	18200
 403.5	18220
 404.0	18215
 404.5	18169
 405.1	18171
 405.6	18264
 406.1	18238
 406.7	18249
 407.2	18251
 407.7	18331
 408.2	18326
 408.8	18321
 409.3	18357
 409.8	18401
 410.4	18365
 410.9	18369
 411.4	18319
 412.0	18371
 412.5	18423
 413.0	18377
 413.6	18423
 414.1	18385
 414.6	18418
 415.2	18455
 415.7	18389
 416.2	18442
 416.8	18429
 417.3	18413
 417.8	18433
 418.4	18520
 418.9	18458
 419.4	18582
 420.0	18475
 420.5	18539
 421.0	18481
 421.5	18563
 422.1	18546
 422.6	18597
 423.1	18622
 423.7	18591
 424.2	18580
 424.7	18619
 425.3	18593
 425.8	18611
 426.3	18601
 426.9	18655
 427.4	18602
 427.9	18705
 428.5	18649
 429.0	18693
 429.6	18650
 430.1	18727
 430.6	18727
 431.2	18671
 431.7	18766
 432.2	18741
 432.8	18718
 433.3	18823
 433.8	18829
 434.4	18808
 434.9	18827
 435.4	18872
 436.0	18861
 436.5	18853
 437.0	18933
 437.6	18907
 438.1	18961
 438.6	18965
 439.2	18997
 439.7	18979
 440.2	18929
 440.8	18961
 441.3	18960
 441.8	18969
 442.4	18929
 442.9	18961
 443.5	18992
 444.0	18985
 444.5	19012
 445.1	18927
 445.6	18965
 446.1	18985
 446.7	19003
 447.2	19029
 447.7	19014
 448.3	19085
 448.8	19055
 449.3	19093
 449.9	19049
 450.4	19147
 450.9	19191
 451.5	19197
 452.0	19176
 452.6	19198
 453.1	19259
 453.6	19272
 454.2	19181
 454.7	19261
 455.2	19285
 455.8	19334
 456.3	19279
 456.8	19408
 457.4	19337
 457.9	19348
 458.5	19404
 459.0	19365
 459.5	19401
 460.1	19355
 460.6	19402
 461.1	19388
 461.7	19440
 462.2	19383
 462.7	19431
 463.3	19358
 463.8	19435
 464.4	19496
 464.9	19443
 465.4	19507
 466.0	19412
 466.5	19483
 467.0	19426
 467.6	19494
 468.1	19578
 468.7	19517
 469.2	19458
 469.7	19548
 470.3	19541
 470.8	19581
 471.3	19563
 471.9	19531
 472.4	19591
 473.0	19637
 473.5	19660
 474.0	19655
 474.6	19668
 475.1	19659
 475.6	19735
 476.2	19751
 476.7	19736
 477.3	19795
 477.8	19743
 478.3	19679
 478.9	19880
 479.4	19777
 479.9	19788
 480.5	19787
 481.0	19811
 481.6	19835
 482.1	19905
 482.6	19894
 483.2	19907
 483.7	20023
 484.2	19963
 484.8	19818
 485.3	19917
 485.9	20001
 486.4	19968
 486.9	19986
 487.5	19960
 488.0	19969
 488.6	20031
 489.1	20049
 489.6	20107
 490.2	20104
 490.7	20068
 491.2	20041
 491.8	20101
 492.3	20059
 492.9	20109
 493.4	20119
 493.9	20139
 494.5	20136
 495.0	20199
 495.6	20120
 496.1	20133
 496.6	20192
 497.2	20106
 497.7	20071
 498.2	20155
 498.8	20176
 499.3	20096
 499.9	20145
 500.4	20143
 500.9	20131
 501.5	20123
 502.0	20195
 502.6	20185
 503.1	20269
 503.6	20246
 504.2	20211
 504.7	20228
 505.2	20298
 505.8	20305
 506.3	20398
 506.9	20410
 507.4	20398
 507.9	20394
 508.5	20443
 509.0	20492
 509.6	20572
 510.1	20549
 510.6	20605
 511.2	20647
 511.7	20644
 512.2	20720
 512.8	20753
 513.3	20731
 513.9	20733
 514.4	20793
 514.9	20871
 515.5	20773
 516.0	20857
 516.6	20825
 517.1	20877
 517.6	20852
 518.2	20824
 518.7	20757
 519.3	20802
 519.8	20837
 520.3	20834
 520.9	20781
 521.4	20776
 521.9	20823
 522.5	20749
 523.0	20756
 523.6	20783
 524.1	20637
 524.6	20681
 525.2	20712
 525.7	20744
 526.3	20668
 526.8	20765
 527.3	20717
 527.9	20745
 528.4	20729
 528.9	20801
 529.5	20819
 530.0	20812
 530.6	20868
 531.1	20887
 531.6	20825
 532.2	20949
 532.7	20925
 533.3	20976
 533.8	21107
 534.3	21162
 534.9	21176
 535.4	21141
 536.0	21228
 536.5	21283
 537.0	21260
 537.6	21300
 538.1	21369
 538.6	21398
 539.2	21356
 539.7	21384
 540.3	21490
 540.8	21465
 541.3	21435
 541.9	21471
 542.4	21484
 543.0	21545
 543.5	21511
 544.0	21491
 544.6	21539
 545.1	21547
 545.6	21583
 546.2	21564
 546.7	21473
 547.3	21535
 547.8	21513
 548.3	21551
 548.9	21471
 549.4	21467
 550.0	21432
 550.5	21497
 551.0	21535
 551.6	21483
 552.1	21499
 552.6	21504
 553.2	21469
 553.7	21443
 554.3	21479
 554.8	21550
 555.3	21416
 555.9	21488
 556.4	21450
 556.9	21545
 557.5	21580
 558.0	21539
 558.6	21522
 559.1	21599
 559.6	21591
 560.2	21596
 560.7	21606
 561.3	21583
 561.8	21572
 562.3	21695
 562.9	21682
 563.4	21719
 563.9	21714
 564.5	21727
 565.0	21718
 565.6	21744
 566.1	21747
 566.6	21753
 567.2	21743
 567.7	21844
 568.2	21761
 568.8	21772
 569.3	21749
 569.9	21823
 570.4	21805
 570.9	21784
 571.5	21780
 572.0	21772
 572.5	21836
 573.1	21778
 573.6	21840
 574.1	21830
 574.7	21831
 575.2	21810
 575.8	21851
 576.3	21933
 576.8	21904
 577.4	21921
 577.9	21939
 578.4	21919
 579.0	21931
 579.5	22038
 580.1	21973
 580.6	21995
 581.1	22083
 581.7	22101
 582.2	22054
 582.7	22101
 583.3	22147
 583.8	22133
 584.3	22087
 584.9	22154
 585.4	22163
 586.0	22147
 586.5	22181
 587.0	22152
 587.6	22233
 588.1	22187
 588.6	22261
 589.2	22210
 589.7	22237
 590.2	22224
 590.8	22214
 591.3	22245
 591.9	22183
 592.4	22239
 592.9	22167
 593.5	22159
 594.0	22149
 594.5	22157
 595.1	22134
 595.6	22102
 596.1	22152
 596.7	22102
 597.2	22135
 597.7	22072
 598.3	22070
 598.8	22040
 599.3	22045
 599.9	22007
 600.4	21994
 601.0	21995
 601.5	21977
 602.0	21968
 602.6	21922
 603.1	21930
 603.6	21932
 604.2	22026
 604.7	21940
 605.2	22001
 605.8	21927
 606.3	21953
 606.8	22029
 607.4	22007
 607.9	22049
 608.4	22003
 609.0	22047
 609.5	22097
 610.0	22080
 610.6	22173
 611.1	22098
 611.6	22140
 612.2	22148
 612.7	22211
 613.2	22215
 613.8	22159
 614.3	22202
 614.8	22257
 615.4	22210
 615.9	22307
 616.4	22372
 617.0	22336
 617.5	22435
 618.0	22461
 618.6	22413
 619.1	22458
 619.6	22551
 620.2	22563
 620.7	22649
 621.2	22624
 621.8	22680
 622.3	22722
 622.8	22699
 623.4	22742
 623.9	22811
 624.4	22797
 625.0	22805
 625.5	22807
 626.0	22824
 626.6	22871
 627.1	22866
 627.6	22814
 628.2	22782
 628.7	22815
 629.2	22802
 629.8	22822
 630.3	22826
 630.8	22801
 631.4	22770
 631.9	22787
 632.4	22675
 632.9	22677
 633.5	22668
 634.0	22614
 634.5	22675
 635.1	22596
 635.6	22569
 636.1	22541
 636.7	22576
 637.2	22563
 637.7	22457
 638.3	22545
 638.8	22519
 639.3	22523
 639.8	22467
 640.4	22475
 640.9	22487
 641.4	22396
 642.0	22375
 642.5	22390
 643.0	22363
 643.6	22437
 644.1	22397
 644.6	22404
 645.1	22435
 645.7	22420
 646.2	22378
 646.7	22400
 647.3	22426
 647.8	22439
 648.3	22412
 648.9	22456
 649.4	22374
 649.9	22448
 650.4	22461
 651.0	22505
 651.5	22525
 652.0	22580
 652.6	22534
 653.1	22612
 653.6	22539
 654.1	22614
 654.7	22580
 655.2	22666
 655.7	22711
 656.3	22725
 656.8	22681
 657.3	22746
 657.8	22701
 658.4	22702
 658.9	22719
 659.4	22802
 659.9	22804
 660.5	22779
 661.0	22833
 661.5	22877
 662.1	22840
 662.6	22856
 663.1	22824
 663.6	22900
 664.2	22860
 664.7	22831
 665.2	22763
 665.7	22882
 666.3	22847
 666.8	22854
 667.3	22853
 667.8	22813
 668.4	22842
 668.9	22846
 669.4	22821
 669.9	22849
 670.5	22785
 671.0	22801
 671.5	22749
 672.0	22808
 672.6	22804
 673.1	22823
 673.6	22744
 674.1	22767
 674.7	22754
 675.2	22797
 675.7	22663
 676.2	22663
 676.8	22719
 677.3	22727
 677.8	22653
 678.3	22751
 678.9	22683
 679.4	22633
 679.9	22687
 680.4	22687
 681.0	22651
 681.5	22686
 682.0	22650
 682.5	22670
 683.1	22584
 683.6	22627
 684.1	22573
 684.6	22666
 685.1	22610
 685.7	22626
 686.2	22595
 686.7	22558
 687.2	22549
 687.8	22613
 688.3	22559
 688.8	22585
 689.3	22525
 689.8	22555
 690.4	22553
 690.9	22558
 691.4	22561
 691.9	22584
 692.4	22547
 693.0	22608
 693.5	22584
 694.0	22575
 694.5	22560
 695.1	22542
 695.6	22511
 696.1	22573
 696.6	22562
 697.1	22581
 697.7	22609
 698.2	22545
 698.7	22567
 699.2	22524
 699.7	22533
 700.3	22507
 700.8	22487
 701.3	22590
 701.8	22553
 702.3	22494
 702.8	22491
 703.4	22471
 703.9	22482
 704.4	22471
 704.9	22434
 705.4	22433
 706.0	22519
 706.5	22501
 707.0	22415
 707.5	22398
 708.0	22426
 708.5	22373
 709.1	22430
 709.6	22393
 710.1	22361
 710.6	22331
 711.1	22331
 711.7	22348
 712.2	22345
 712.7	22347
 713.2	22321
 713.7	22325
 714.2	22286
 714.8	22359
 715.3	22308
 715.8	22310
 716.3	22315
 716.8	22232
 717.3	22209
 717.8	22328
 718.4	22339
 718.9	22276
 719.4	22347
 719.9	22260
 720.4	22304
 720.9	22315
 721.4	22313
 722.0	22339
 722.5	22321
 723.0	22315
 723.5	22325
 724.0	22291
 724.5	22285
 725.0	22307
 725.6	22238
 726.1	22291
 726.6	22407
 727.1	22342
 727.6	22380
 728.1	22399
 728.6	22363
 729.1	22353
 729.7	22337
 730.2	22364
 730.7	22397
 731.2	22424
 731.7	22416
 732.2	22419
 732.7	22402
 733.2	22447
 733.8	22418
 734.3	22436
 734.8	22407
 735.3	22443
 735.8	22422
 736.3	22401
 736.8	22442
 737.3	22475
 737.8	22428
 738.4	22434
 738.9	22387
 739.4	22471
 739.9	22456
 740.4	22469
 740.9	22452
 741.4	22449
 741.9	22447
 742.4	22463
 742.9	22447
 743.4	22528
 744.0	22439
 744.5	22432
 745.0	22449
 745.5	22508
 746.0	22485
 746.5	22489
 747.0	22435
 747.5	22416
 748.0	22386
 748.5	22402
 749.0	22414
 749.5	22487
 750.0	22332
 750.5	22382
 751.1	22385
 751.6	22375
 752.1	22364
 752.6	22326
 753.1	22354
 753.6	22281
 754.1	22249
 754.6	22293
 755.1	22237
 755.6	22241
 756.1	22157
 756.6	22247
 757.1	22210
 757.6	22181
 758.1	22141
 758.6	22148
 759.1	22068
 759.6	22099
 760.1	22045
 760.7	22000
 761.2	22066
 761.7	22014
 762.2	21981
 762.7	22035
 763.2	21889
 763.7	21961
 764.2	21894
 764.7	21886
 765.2	21911
 765.7	21870
 766.2	21829
 766.7	21859
 767.2	21806
 767.7	21804
 768.2	21776
 768.7	21730
 769.2	21720
 769.7	21757
 770.2	21718
 770.7	21715
 771.2	21687
 771.7	21660
 772.2	21662
 772.7	21698
 773.2	21680
 773.7	21630
 774.2	21571
 774.7	21617
 775.2	21593
 775.7	21569
 776.2	21556
 776.7	21581
 777.2	21503
 777.7	21579
 778.2	21559
 778.7	21588
 779.2	21591
 779.7	21617
 780.2	21466
 780.7	21529
 781.2	21531
 781.7	21592
 782.2	21513
 782.6	21585
 783.1	21583
 783.6	21545
 784.1	21517
 784.6	21501
 785.1	21513
 785.6	21502
 786.1	21529
 786.6	21548
 787.1	21484
 787.6	21483
 788.1	21475
 788.6	21462
 789.1	21451
 789.6	21487
 790.1	21496
 790.6	21491
 791.1	21394
 791.6	21393
 792.0	21410
 792.5	21438
 793.0	21413
 793.5	21405
 794.0	21337
 794.5	21421
 795.0	21393
 795.5	21364
 796.0	21368
 796.5	21312
 797.0	21326
 797.5	21359
 798.0	21211
 798.4	21247
 798.9	21218
 799.4	21231
 799.9	21225
 800.4	21094
 800.9	21178
 801.4	21231
 801.9	21182
 802.4	21098
 802.9	21153
 803.3	21140
 803.8	21097
 804.3	21038
 804.8	21084
 805.3	21031
 805.8	21007
 806.3	20998
 806.8	20965
 807.2	20950
 807.7	20907
 808.2	20929
 808.7	20840
 809.2	20840
 809.7	20773
 810.2	20822
 810.7	20755
 811.1	20762
 811.6	20751
 812.1	20696
 812.6	20651
 813.1	20680
 813.6	20692
 814.1	20670
 814.5	20623
 815.0	20631
 815.5	20587
 816.0	20535
 816.5	20597
 817.0	20540
 817.4	20522
 817.9	20543
 818.4	20471
 818.9	20547
 819.4	20491
 819.9	20469
 820.3	20432
 820.8	20427
 821.3	20417
 821.8	20436
 822.3	20366
 822.7	20349
 823.2	20397
 823.7	20346
 824.2	20340
 824.7	20322
 825.2	20330
 825.6	20305
 826.1	20295
 826.6	20335
 827.1	20317
 827.6	20314
 828.0	20251
 828.5	20226
 829.0	20259
 829.5	20201
 829.9	20201
 830.4	20247
 830.9	20232
 831.4	20251
 831.9	20200
 832.3	20280
 832.8	20221
 833.3	20210
 833.8	20288
 834.2	20278
 834.7	20125
 835.2	20218
 835.7	20213
 836.1	20206
 836.6	20184
 837.1	20187
 837.6	20190
 838.0	20219
 838.5	20243
 839.0	20240
 839.5	20232
 839.9	20152
 840.4	20154
 840.9	20120
 841.4	20154
 841.8	20179
 842.3	20183
 842.8	20203
 843.3	20197
 843.7	20093
 844.2	20085
 844.7	20165
 845.1	20133
 845.6	20060
 846.1	20073
 846.6	20105
 847.0	20008
 847.5	20054
 848.0	20035
 848.4	20067
 848.9	20035
 849.4	20015
 849.8	20035
 850.3	20026
 850.8	20069
 851.3	20025
 851.7	20021
 852.2	20027
 852.7	20009
 853.1	19986
 853.6	19937
 854.1	19971
 854.5	19933
 855.0	19911
 855.5	19911
 855.9	19966
 856.4	19946
 856.9	19863
 857.3	19916
 857.8	19884
 858.3	19916
 858.7	19870
 859.2	19883
 859.7	19881
 860.1	19927
 860.6	19903
 861.1	19837
 861.5	19879
 862.0	19885
 862.4	19850
 862.9	19815
 863.4	19853
 863.8	19847
 864.3	19844
 864.8	19764
 865.2	19807
 865.7	19827
 866.1	19834
 866.6	19750
 867.1	19826
 867.5	19803
 868.0	19777
 868.5	19727
 868.9	19733
 869.4	19821
 869.8	19775
 870.3	19727
 870.8	19790
 871.2	19735
 871.7	19731
 872.1	19681
 872.6	19734
 873.0	19713
 873.5	19801
 874.0	19796
 874.4	19711
 874.9	19768
 875.3	19747
 875.8	19674
 876.2	19487
 876.7	19340
 877.2	18999
 877.6	18563
 878.1	18119
