#xlabel Wavelength (nm)
#ylabel Spectrometer Array Counts
#title Exposure time is 10000 ms
## lambda	counts
 349.8	16993
 350.3	17278
 350.8	17538
 351.3	17727
 351.9	17822
 352.4	17931
 352.9	17992
 353.4	17949
 354.0	17943
 354.5	17977
 355.0	17977
 355.5	17990
 356.0	17947
 356.6	17918
 357.1	17964
 357.6	17943
 358.1	17971
 358.7	17913
 359.2	17932
 359.7	17951
 360.2	17990
 360.8	17954
 361.3	18052
 361.8	17999
 362.3	18032
 362.9	17995
 363.4	18070
 363.9	18073
 364.4	18102
 364.9	18019
 365.5	18088
 366.0	18074
 366.5	18037
 367.0	18079
 367.6	18111
 368.1	18111
 368.6	18051
 369.1	18106
 369.7	18163
 370.2	18093
 370.7	18096
 371.2	18139
 371.8	18199
 372.3	18123
 372.8	18211
 373.3	18223
 373.9	18168
 374.4	18189
 374.9	18245
 375.5	18146
 376.0	18273
 376.5	18245
 377.0	18271
 377.6	18220
 378.1	18311
 378.6	18251
 379.1	18261
 379.7	18252
 380.2	18325
 380.7	18335
 381.2	18304
 381.8	18304
 382.3	18345
 382.8	18333
 383.4	18386
 383.9	18342
 384.4	18495
 384.9	18411
 385.5	18427
 386.0	18441
 386.5	18506
 387.1	18445
 387.6	18479
 388.1	18483
 388.6	18501
 389.2	18499
 389.7	18532
 390.2	18519
 390.8	18617
 391.3	18601
 391.8	18610
 392.3	18614
 392.9	18621
 393.4	18623
 393.9	18703
 394.5	18721
 395.0	18683
 395.5	18715
 396.0	18729
 396.6	18711
 397.1	18808
 397.6	18809
 398.2	18821
 398.7	18826
 399.2	18919
 399.8	18804
 400.3	18875
 400.8	18924
 401.3	18898
 401.9	18925
 402.4	18953
 402.9	18949
 403.5	18983
 404.0	18981
 404.5	18948
 405.1	18964
 405.6	19073
 406.1	19065
 406.7	19089
 407.2	19108
 407.7	19209
 408.2	19219
 408.8	19232
 409.3	19280
 409.8	19335
 410.4	19319
 410.9	19340
 411.4	19299
 412.0	19373
 412.5	19436
 413.0	19409
 413.6	19457
 414.1	19436
 414.6	19485
 415.2	19533
 415.7	19487
 416.2	19550
 416.8	19547
 417.3	19546
 417.8	19579
 418.4	19678
 418.9	19634
 419.4	19768
 420.0	19678
 420.5	19755
 421.0	19711
 421.5	19809
 422.1	19796
 422.6	19865
 423.1	19898
 423.7	19878
 424.2	19871
 424.7	19919
 425.3	19909
 425.8	19941
 426.3	19936
 426.9	20008
 427.4	19957
 427.9	20074
 428.5	20038
 429.0	20094
 429.6	20069
 430.1	20167
 430.6	20194
 431.2	20170
 431.7	20287
 432.2	20289
 432.8	20299
 433.3	20432
 433.8	20463
 434.4	20469
 434.9	20512
 435.4	20591
 436.0	20600
 436.5	20623
 437.0	20713
 437.6	20711
 438.1	20775
 438.6	20793
 439.2	20833
 439.7	20836
 440.2	20782
 440.8	20819
 441.3	20826
 441.8	20833
 442.4	20804
 442.9	20835
 443.5	20864
 444.0	20867
 444.5	20898
 445.1	20819
 445.6	20862
 446.1	20909
 446.7	20943
 447.2	20977
 447.7	20988
 448.3	21091
 448.8	21082
 449.3	21149
 449.9	21139
 450.4	21283
 450.9	21358
 451.5	21403
 452.0	21417
 452.6	21482
 453.1	21584
 453.6	21637
 454.2	21577
 454.7	21694
 455.2	21745
 455.8	21826
 456.3	21803
 456.8	21950
 457.4	21903
 457.9	21935
 458.5	21995
 459.0	21967
 459.5	22017
 460.1	21978
 460.6	22031
 461.1	22022
 461.7	22072
 462.2	22027
 462.7	22066
 463.3	22004
 463.8	22077
 464.4	22150
 464.9	22109
 465.4	22183
 466.0	22113
 466.5	22192
 467.0	22155
 467.6	22249
 468.1	22351
 468.7	22316
 469.2	22283
 469.7	22410
 470.3	22420
 470.8	22486
 471.3	22504
 471.9	22504
 472.4	22580
 473.0	22655
 473.5	22709
 474.0	22734
 474.6	22775
 475.1	22802
 475.6	22894
 476.2	22935
 476.7	22936
 477.3	23019
 477.8	22993
 478.3	22946
 478.9	23166
 479.4	23091
 479.9	23129
 480.5	23149
 481.0	23205
 481.6	23251
 482.1	23351
 482.6	23367
 483.2	23411
 483.7	23545
 484.2	23519
 484.8	23410
 485.3	23532
 485.9	23631
 486.4	23620
 486.9	23677
 487.5	23666
 488.0	23706
 488.6	23787
 489.1	23828
 489.6	23906
 490.2	23918
 490.7	23911
 491.2	23888
 491.8	23966
 492.3	23930
 492.9	23991
 493.4	24007
 493.9	24030
 494.5	24034
 495.0	24095
 495.6	24009
 496.1	24022
 496.6	24074
 497.2	23988
 497.7	23969
 498.2	24040
 498.8	24052
 499.3	23987
 499.9	24039
 500.4	24047
 500.9	24044
 501.5	24054
 502.0	24157
 502.6	24162
 503.1	24283
 503.6	24289
 504.2	24294
 504.7	24350
 505.2	24462
 505.8	24501
 506.3	24651
 506.9	24725
 507.4	24767
 507.9	24818
 508.5	24916
 509.0	25033
 509.6	25169
 510.1	25207
 510.6	25307
 511.2	25392
 511.7	25453
 512.2	25565
 512.8	25639
 513.3	25660
 513.9	25692
 514.4	25781
 514.9	25885
 515.5	25810
 516.0	25898
 516.6	25863
 517.1	25913
 517.6	25875
 518.2	25843
 518.7	25766
 519.3	25794
 519.8	25797
 520.3	25763
 520.9	25701
 521.4	25676
 521.9	25697
 522.5	25593
 523.0	25575
 523.6	25593
 524.1	25439
 524.6	25475
 525.2	25497
 525.7	25539
 526.3	25487
 526.8	25582
 527.3	25554
 527.9	25602
 528.4	25610
 528.9	25704
 529.5	25756
 530.0	25791
 530.6	25889
 531.1	25943
 531.6	25927
 532.2	26098
 532.7	26134
 533.3	26239
 533.8	26419
 534.3	26534
 534.9	26595
 535.4	26630
 536.0	26770
 536.5	26876
 537.0	26915
 537.6	27001
 538.1	27114
 538.6	27195
 539.2	27199
 539.7	27269
 540.3	27409
 540.8	27417
 541.3	27413
 541.9	27481
 542.4	27507
 543.0	27583
 543.5	27563
 544.0	27551
 544.6	27591
 545.1	27612
 545.6	27638
 546.2	27621
 546.7	27527
 547.3	27589
 547.8	27557
 548.3	27589
 548.9	27493
 549.4	27493
 550.0	27447
 550.5	27508
 551.0	27534
 551.6	27485
 552.1	27489
 552.6	27497
 553.2	27447
 553.7	27431
 554.3	27463
 554.8	27541
 555.3	27406
 555.9	27487
 556.4	27473
 556.9	27593
 557.5	27629
 558.0	27617
 558.6	27621
 559.1	27709
 559.6	27725
 560.2	27759
 560.7	27799
 561.3	27795
 561.8	27805
 562.3	27956
 562.9	27965
 563.4	28027
 563.9	28040
 564.5	28071
 565.0	28085
 565.6	28125
 566.1	28143
 566.6	28155
 567.2	28166
 567.7	28265
 568.2	28209
 568.8	28221
 569.3	28218
 569.9	28283
 570.4	28269
 570.9	28259
 571.5	28264
 572.0	28271
 572.5	28339
 573.1	28301
 573.6	28391
 574.1	28383
 574.7	28404
 575.2	28403
 575.8	28475
 576.3	28570
 576.8	28564
 577.4	28607
 577.9	28655
 578.4	28667
 579.0	28705
 579.5	28851
 580.1	28811
 580.6	28875
 581.1	28985
 581.7	29047
 582.2	29034
 582.7	29105
 583.3	29182
 583.8	29187
 584.3	29171
 584.9	29262
 585.4	29293
 586.0	29301
 586.5	29361
 587.0	29367
 587.6	29460
 588.1	29439
 588.6	29518
 589.2	29479
 589.7	29513
 590.2	29513
 590.8	29498
 591.3	29519
 591.9	29461
 592.4	29504
 592.9	29435
 593.5	29405
 594.0	29375
 594.5	29369
 595.1	29305
 595.6	29251
 596.1	29278
 596.7	29211
 597.2	29218
 597.7	29132
 598.3	29115
 598.8	29066
 599.3	29041
 599.9	28970
 600.4	28942
 601.0	28927
 601.5	28903
 602.0	28879
 602.6	28834
 603.1	28840
 603.6	28843
 604.2	28931
 604.7	28863
 605.2	28929
 605.8	28861
 606.3	28907
 606.8	28995
 607.4	29002
 607.9	29073
 608.4	29049
 609.0	29113
 609.5	29182
 610.0	29199
 610.6	29312
 611.1	29274
 611.6	29363
 612.2	29405
 612.7	29494
 613.2	29533
 613.8	29525
 614.3	29609
 614.8	29693
 615.4	29705
 615.9	29845
 616.4	29965
 617.0	29968
 617.5	30109
 618.0	30204
 618.6	30222
 619.1	30324
 619.6	30463
 620.2	30558
 620.7	30703
 621.2	30750
 621.8	30851
 622.3	30946
 622.8	30986
 623.4	31067
 623.9	31181
 624.4	31199
 625.0	31234
 625.5	31248
 626.0	31282
 626.6	31342
 627.1	31326
 627.6	31286
 628.2	31255
 628.7	31298
 629.2	31272
 629.8	31279
 630.3	31251
 630.8	31215
 631.4	31157
 631.9	31132
 632.4	30983
 632.9	30947
 633.5	30902
 634.0	30815
 634.5	30817
 635.1	30710
 635.6	30667
 636.1	30593
 636.7	30564
 637.2	30513
 637.7	30381
 638.3	30423
 638.8	30371
 639.3	30353
 639.8	30256
 640.4	30240
 640.9	30235
 641.4	30129
 642.0	30090
 642.5	30079
 643.0	30042
 643.6	30112
 644.1	30054
 644.6	30069
 645.1	30084
 645.7	30085
 646.2	30033
 646.7	30065
 647.3	30089
 647.8	30121
 648.3	30103
 648.9	30163
 649.4	30101
 649.9	30187
 650.4	30225
 651.0	30297
 651.5	30335
 652.0	30413
 652.6	30396
 653.1	30510
 653.6	30467
 654.1	30553
 654.7	30563
 655.2	30679
 655.7	30747
 656.3	30787
 656.8	30781
 657.3	30873
 657.8	30865
 658.4	30901
 658.9	30955
 659.4	31041
 659.9	31065
 660.5	31066
 661.0	31130
 661.5	31194
 662.1	31174
 662.6	31207
 663.1	31181
 663.6	31276
 664.2	31229
 664.7	31219
 665.2	31162
 665.7	31267
 666.3	31234
 666.8	31223
 667.3	31223
 667.8	31194
 668.4	31209
 668.9	31204
 669.4	31171
 669.9	31182
 670.5	31109
 671.0	31116
 671.5	31065
 672.0	31089
 672.6	31073
 673.1	31091
 673.6	30995
 674.1	31004
 674.7	30977
 675.2	31004
 675.7	30873
 676.2	30847
 676.8	30891
 677.3	30885
 677.8	30805
 678.3	30877
 678.9	30807
 679.4	30733
 679.9	30780
 680.4	30766
 681.0	30715
 681.5	30735
 682.0	30679
 682.5	30698
 683.1	30605
 683.6	30622
 684.1	30557
 684.6	30642
 685.1	30585
 685.7	30590
 686.2	30559
 686.7	30518
 687.2	30510
 687.8	30559
 688.3	30505
 688.8	30516
 689.3	30457
 689.8	30490
 690.4	30479
 690.9	30494
 691.4	30513
 691.9	30518
 692.4	30498
 693.0	30561
 693.5	30530
 694.0	30521
 694.5	30522
 695.1	30499
 695.6	30465
 696.1	30536
 696.6	30526
 697.1	30545
 697.7	30571
 698.2	30506
 698.7	30535
 699.2	30495
 699.7	30502
 700.3	30462
 700.8	30438
 701.3	30513
 701.8	30477
 702.3	30410
 702.8	30409
 703.4	30393
 703.9	30366
 704.4	30329
 704.9	30278
 705.4	30272
 706.0	30325
 706.5	30289
 707.0	30189
 707.5	30162
 708.0	30167
 708.5	30099
 709.1	30141
 709.6	30087
 710.1	30022
 710.6	29990
 711.1	29959
 711.7	29961
 712.2	29926
 712.7	29928
 713.2	29886
 713.7	29875
 714.2	29812
 714.8	29885
 715.3	29827
 715.8	29815
 716.3	29815
 716.8	29743
 717.3	29722
 717.8	29819
 718.4	29823
 718.9	29772
 719.4	29846
 719.9	29759
 720.4	29807
 720.9	29822
 721.4	29818
 722.0	29848
 722.5	29843
 723.0	29842
 723.5	29863
 724.0	29839
 724.5	29830
 725.0	29871
 725.6	29819
 726.1	29879
 726.6	29986
 727.1	29930
 727.6	29976
 728.1	29997
 728.6	29961
 729.1	29964
 729.7	29946
 730.2	29975
 730.7	30002
 731.2	30037
 731.7	30029
 732.2	30040
 732.7	30015
 733.2	30057
 733.8	30030
 734.3	30057
 734.8	30055
 735.3	30087
 735.8	30095
 736.3	30087
 736.8	30141
 737.3	30193
 737.8	30161
 738.4	30165
 738.9	30131
 739.4	30222
 739.9	30210
 740.4	30233
 740.9	30215
 741.4	30217
 741.9	30205
 742.4	30233
 742.9	30209
 743.4	30271
 744.0	30179
 744.5	30165
 745.0	30162
 745.5	30214
 746.0	30175
 746.5	30180
 747.0	30107
 747.5	30073
 748.0	30037
 748.5	30044
 749.0	30038
 749.5	30095
 750.0	29923
 750.5	29945
 751.1	29919
 751.6	29903
 752.1	29855
 752.6	29806
 753.1	29819
 753.6	29728
 754.1	29687
 754.6	29685
 755.1	29610
 755.6	29591
 756.1	29478
 756.6	29533
 757.1	29475
 757.6	29425
 758.1	29351
 758.6	29315
 759.1	29214
 759.6	29214
 760.1	29133
 760.7	29055
 761.2	29099
 761.7	29027
 762.2	28973
 762.7	28975
 763.2	28829
 763.7	28863
 764.2	28763
 764.7	28723
 765.2	28708
 765.7	28629
 766.2	28558
 766.7	28551
 767.2	28458
 767.7	28420
 768.2	28365
 768.7	28290
 769.2	28237
 769.7	28243
 770.2	28189
 770.7	28150
 771.2	28103
 771.7	28055
 772.2	28041
 772.7	28058
 773.2	28009
 773.7	27934
 774.2	27868
 774.7	27885
 775.2	27839
 775.7	27803
 776.2	27773
 776.7	27786
 777.2	27695
 777.7	27745
 778.2	27702
 778.7	27729
 779.2	27719
 779.7	27733
 780.2	27573
 780.7	27617
 781.2	27607
 781.7	27653
 782.2	27576
 782.6	27626
 783.1	27610
 783.6	27572
 784.1	27521
 784.6	27510
 785.1	27509
 785.6	27501
 786.1	27507
 786.6	27518
 787.1	27457
 787.6	27440
 788.1	27414
 788.6	27394
 789.1	27366
 789.6	27371
 790.1	27373
 790.6	27353
 791.1	27244
 791.6	27231
 792.0	27214
 792.5	27216
 793.0	27175
 793.5	27144
 794.0	27061
 794.5	27117
 795.0	27054
 795.5	27017
 796.0	26987
 796.5	26911
 797.0	26895
 797.5	26898
 798.0	26717
 798.4	26711
 798.9	26655
 799.4	26622
 799.9	26583
 800.4	26425
 800.9	26473
 801.4	26479
 801.9	26383
 802.4	26267
 802.9	26271
 803.3	26217
 803.8	26139
 804.3	26053
 804.8	26051
 805.3	25965
 805.8	25891
 806.3	25837
 806.8	25778
 807.2	25719
 807.7	25649
 808.2	25621
 808.7	25496
 809.2	25461
 809.7	25351
 810.2	25370
 810.7	25266
 811.1	25228
 811.6	25175
 812.1	25092
 812.6	25015
 813.1	25011
 813.6	24991
 814.1	24939
 814.5	24857
 815.0	24843
 815.5	24759
 816.0	24686
 816.5	24707
 817.0	24625
 817.4	24579
 817.9	24571
 818.4	24471
 818.9	24521
 819.4	24446
 819.9	24395
 820.3	24341
 820.8	24311
 821.3	24280
 821.8	24269
 822.3	24179
 822.7	24136
 823.2	24172
 823.7	24101
 824.2	24079
 824.7	24039
 825.2	24019
 825.6	23982
 826.1	23953
 826.6	23981
 827.1	23941
 827.6	23918
 828.0	23847
 828.5	23803
 829.0	23817
 829.5	23747
 829.9	23732
 830.4	23765
 830.9	23732
 831.4	23745
 831.9	23683
 832.3	23738
 832.8	23668
 833.3	23657
 833.8	23712
 834.2	23691
 834.7	23533
 835.2	23614
 835.7	23597
 836.1	23581
 836.6	23547
 837.1	23537
 837.6	23533
 838.0	23553
 838.5	23564
 839.0	23549
 839.5	23532
 839.9	23451
 840.4	23447
 840.9	23397
 841.4	23427
 841.8	23434
 842.3	23430
 842.8	23438
 843.3	23425
 843.7	23309
 844.2	23292
 844.7	23358
 845.1	23319
 845.6	23235
 846.1	23246
 846.6	23265
 847.0	23158
 847.5	23191
 848.0	23158
 848.4	23183
 848.9	23127
 849.4	23090
 849.8	23093
 850.3	23079
 850.8	23106
 851.3	23049
 851.7	23030
 852.2	23021
 852.7	22989
 853.1	22956
 853.6	22888
 854.1	22913
 854.5	22860
 855.0	22826
 855.5	22803
 855.9	22842
 856.4	22803
 856.9	22710
 857.3	22740
 857.8	22687
 858.3	22689
 858.7	22626
 859.2	22641
 859.7	22632
 860.1	22667
 860.6	22631
 861.1	22555
 861.5	22585
 862.0	22559
 862.4	22511
 862.9	22461
 863.4	22488
 863.8	22474
 864.3	22451
 864.8	22363
 865.2	22380
 865.7	22384
 866.1	22383
 866.6	22288
 867.1	22343
 867.5	22313
 868.0	22267
 868.5	22204
 868.9	22182
 869.4	22255
 869.8	22206
 870.3	22139
 870.8	22198
 871.2	22137
 871.7	22111
 872.1	22049
 872.6	22083
 873.0	22041
 873.5	22108
 874.0	22082
 874.4	21975
 874.9	22011
 875.3	21972
 875.8	21876
 876.2	21677
 876.7	21502
 877.2	21125
 877.6	20639
 878.1	20123
