#xlabel Wavelength (nm)
#ylabel Spectrometer Array Counts
#title Exposure time is 10000 ms
## lambda	counts
 349.8	16871
 350.3	17130
 350.8	17377
 351.3	17567
 351.9	17668
 352.4	17782
 352.9	17855
 353.4	17821
 354.0	17824
 354.5	17863
 355.0	17868
 355.5	17882
 356.0	17838
 356.6	17804
 357.1	17855
 357.6	17835
 358.1	17856
 358.7	17795
 359.2	17810
 359.7	17825
 360.2	17862
 360.8	17830
 361.3	17923
 361.8	17870
 362.3	17897
 362.9	17859
 363.4	17929
 363.9	17937
 364.4	17966
 364.9	17875
 365.5	17944
 366.0	17931
 366.5	17888
 367.0	17935
 367.6	17958
 368.1	17962
 368.6	17901
 369.1	17959
 369.7	18011
 370.2	17943
 370.7	17945
 371.2	17986
 371.8	18043
 372.3	17973
 372.8	18053
 373.3	18069
 373.9	18019
 374.4	18038
 374.9	18083
 375.5	17990
 376.0	18116
 376.5	18091
 377.0	18115
 377.6	18063
 378.1	18150
 378.6	18089
 379.1	18098
 379.7	18089
 380.2	18165
 380.7	18172
 381.2	18138
 381.8	18133
 382.3	18179
 382.8	18165
 383.4	18217
 383.9	18174
 384.4	18324
 384.9	18238
 385.5	18269
 386.0	18271
 386.5	18346
 387.1	18282
 387.6	18313
 388.1	18317
 388.6	18339
 389.2	18331
 389.7	18365
 390.2	18355
 390.8	18445
 391.3	18425
 391.8	18437
 392.3	18441
 392.9	18447
 393.4	18453
 393.9	18523
 394.5	18541
 395.0	18502
 395.5	18531
 396.0	18545
 396.6	18523
 397.1	18622
 397.6	18626
 398.2	18633
 398.7	18642
 399.2	18733
 399.8	18620
 400.3	18689
 400.8	18737
 401.3	18720
 401.9	18738
 402.4	18763
 402.9	18763
 403.5	18794
 404.0	18798
 404.5	18765
 405.1	18779
 405.6	18884
 406.1	18875
 406.7	18894
 407.2	18916
 407.7	19009
 408.2	19017
 408.8	19031
 409.3	19070
 409.8	19130
 410.4	19105
 410.9	19126
 411.4	19087
 412.0	19157
 412.5	19219
 413.0	19180
 413.6	19239
 414.1	19209
 414.6	19255
 415.2	19308
 415.7	19257
 416.2	19317
 416.8	19313
 417.3	19307
 417.8	19344
 418.4	19443
 418.9	19392
 419.4	19526
 420.0	19433
 420.5	19509
 421.0	19462
 421.5	19554
 422.1	19541
 422.6	19605
 423.1	19639
 423.7	19621
 424.2	19617
 424.7	19662
 425.3	19644
 425.8	19679
 426.3	19671
 426.9	19737
 427.4	19694
 427.9	19810
 428.5	19769
 429.0	19819
 429.6	19798
 430.1	19891
 430.6	19910
 431.2	19881
 431.7	19993
 432.2	19995
 432.8	19998
 433.3	20131
 433.8	20159
 434.4	20161
 434.9	20197
 435.4	20269
 436.0	20271
 436.5	20285
 437.0	20379
 437.6	20375
 438.1	20432
 438.6	20449
 439.2	20491
 439.7	20488
 440.2	20440
 440.8	20481
 441.3	20483
 441.8	20487
 442.4	20461
 442.9	20489
 443.5	20524
 444.0	20521
 444.5	20563
 445.1	20476
 445.6	20518
 446.1	20560
 446.7	20587
 447.2	20627
 447.7	20634
 448.3	20727
 448.8	20714
 449.3	20783
 449.9	20761
 450.4	20901
 450.9	20968
 451.5	21003
 452.0	21019
 452.6	21076
 453.1	21171
 453.6	21221
 454.2	21157
 454.7	21265
 455.2	21313
 455.8	21388
 456.3	21360
 456.8	21507
 457.4	21455
 457.9	21482
 458.5	21535
 459.0	21509
 459.5	21557
 460.1	21514
 460.6	21569
 461.1	21561
 461.7	21607
 462.2	21563
 462.7	21605
 463.3	21544
 463.8	21608
 464.4	21677
 464.9	21641
 465.4	21713
 466.0	21641
 466.5	21721
 467.0	21679
 467.6	21763
 468.1	21871
 468.7	21830
 469.2	21786
 469.7	21911
 470.3	21919
 470.8	21985
 471.3	21992
 471.9	21992
 472.4	22067
 473.0	22134
 473.5	22175
 474.0	22201
 474.6	22236
 475.1	22250
 475.6	22355
 476.2	22383
 476.7	22382
 477.3	22457
 477.8	22431
 478.3	22379
 478.9	22595
 479.4	22519
 479.9	22553
 480.5	22565
 481.0	22617
 481.6	22665
 482.1	22751
 482.6	22765
 483.2	22802
 483.7	22935
 484.2	22903
 484.8	22786
 485.3	22905
 485.9	23005
 486.4	22991
 486.9	23042
 487.5	23032
 488.0	23065
 488.6	23140
 489.1	23173
 489.6	23248
 490.2	23258
 490.7	23246
 491.2	23225
 491.8	23297
 492.3	23262
 492.9	23318
 493.4	23331
 493.9	23353
 494.5	23359
 495.0	23415
 495.6	23340
 496.1	23345
 496.6	23399
 497.2	23318
 497.7	23288
 498.2	23365
 498.8	23379
 499.3	23309
 499.9	23364
 500.4	23370
 500.9	23363
 501.5	23373
 502.0	23467
 502.6	23475
 503.1	23583
 503.6	23588
 504.2	23583
 504.7	23635
 505.2	23739
 505.8	23780
 506.3	23911
 506.9	23978
 507.4	24007
 507.9	24045
 508.5	24140
 509.0	24241
 509.6	24373
 510.1	24397
 510.6	24484
 511.2	24559
 511.7	24609
 512.2	24713
 512.8	24792
 513.3	24800
 513.9	24831
 514.4	24914
 514.9	25013
 515.5	24937
 516.0	25013
 516.6	24981
 517.1	25027
 517.6	24997
 518.2	24967
 518.7	24895
 519.3	24921
 519.8	24924
 520.3	24894
 520.9	24836
 521.4	24815
 521.9	24845
 522.5	24741
 523.0	24729
 523.6	24747
 524.1	24600
 524.6	24634
 525.2	24656
 525.7	24692
 526.3	24637
 526.8	24735
 527.3	24701
 527.9	24744
 528.4	24750
 528.9	24841
 529.5	24885
 530.0	24913
 530.6	24998
 531.1	25057
 531.6	25023
 532.2	25186
 532.7	25209
 533.3	25305
 533.8	25481
 534.3	25583
 534.9	25636
 535.4	25654
 536.0	25785
 536.5	25881
 537.0	25913
 537.6	25995
 538.1	26102
 538.6	26170
 539.2	26163
 539.7	26226
 540.3	26355
 540.8	26365
 541.3	26347
 541.9	26414
 542.4	26433
 543.0	26517
 543.5	26489
 544.0	26476
 544.6	26515
 545.1	26531
 545.6	26561
 546.2	26541
 546.7	26451
 547.3	26509
 547.8	26480
 548.3	26517
 548.9	26423
 549.4	26415
 550.0	26378
 550.5	26438
 551.0	26464
 551.6	26416
 552.1	26425
 552.6	26429
 553.2	26378
 553.7	26362
 554.3	26401
 554.8	26470
 555.3	26340
 555.9	26412
 556.4	26396
 556.9	26511
 557.5	26549
 558.0	26533
 558.6	26533
 559.1	26613
 559.6	26625
 560.2	26660
 560.7	26689
 561.3	26680
 561.8	26690
 562.3	26830
 562.9	26837
 563.4	26901
 563.9	26910
 564.5	26938
 565.0	26947
 565.6	26985
 566.1	26997
 566.6	27005
 567.2	27010
 567.7	27111
 568.2	27057
 568.8	27069
 569.3	27055
 569.9	27127
 570.4	27111
 570.9	27099
 571.5	27103
 572.0	27116
 572.5	27171
 573.1	27137
 573.6	27212
 574.1	27209
 574.7	27227
 575.2	27229
 575.8	27287
 576.3	27381
 576.8	27374
 577.4	27403
 577.9	27454
 578.4	27456
 579.0	27498
 579.5	27628
 580.1	27586
 580.6	27637
 581.1	27742
 581.7	27798
 582.2	27789
 582.7	27847
 583.3	27923
 583.8	27926
 584.3	27911
 584.9	27985
 585.4	28011
 586.0	28023
 586.5	28073
 587.0	28074
 587.6	28167
 588.1	28138
 588.6	28217
 589.2	28175
 589.7	28206
 590.2	28205
 590.8	28193
 591.3	28223
 591.9	28161
 592.4	28200
 592.9	28125
 593.5	28103
 594.0	28080
 594.5	28069
 595.1	28020
 595.6	27963
 596.1	27993
 596.7	27937
 597.2	27943
 597.7	27866
 598.3	27855
 598.8	27810
 599.3	27787
 599.9	27725
 600.4	27698
 601.0	27692
 601.5	27665
 602.0	27641
 602.6	27592
 603.1	27602
 603.6	27603
 604.2	27690
 604.7	27622
 605.2	27691
 605.8	27619
 606.3	27662
 606.8	27746
 607.4	27757
 607.9	27812
 608.4	27793
 609.0	27847
 609.5	27919
 610.0	27931
 610.6	28039
 611.1	27996
 611.6	28071
 612.2	28105
 612.7	28190
 613.2	28233
 613.8	28215
 614.3	28295
 614.8	28369
 615.4	28369
 615.9	28507
 616.4	28613
 617.0	28620
 617.5	28743
 618.0	28818
 618.6	28834
 619.1	28939
 619.6	29058
 620.2	29141
 620.7	29275
 621.2	29310
 621.8	29399
 622.3	29491
 622.8	29521
 623.4	29597
 623.9	29701
 624.4	29711
 625.0	29743
 625.5	29758
 626.0	29785
 626.6	29848
 627.1	29833
 627.6	29787
 628.2	29756
 628.7	29799
 629.2	29776
 629.8	29787
 630.3	29763
 630.8	29729
 631.4	29673
 631.9	29657
 632.4	29511
 632.9	29484
 633.5	29446
 634.0	29367
 634.5	29383
 635.1	29282
 635.6	29239
 636.1	29172
 636.7	29153
 637.2	29114
 637.7	28986
 638.3	29041
 638.8	28990
 639.3	28975
 639.8	28879
 640.4	28876
 640.9	28863
 641.4	28769
 642.0	28729
 642.5	28723
 643.0	28691
 643.6	28762
 644.1	28717
 644.6	28723
 645.1	28734
 645.7	28735
 646.2	28694
 646.7	28719
 647.3	28746
 647.8	28771
 648.3	28754
 648.9	28806
 649.4	28743
 649.9	28824
 650.4	28857
 651.0	28927
 651.5	28963
 652.0	29037
 652.6	29018
 653.1	29121
 653.6	29077
 654.1	29167
 654.7	29168
 655.2	29269
 655.7	29341
 656.3	29375
 656.8	29362
 657.3	29452
 657.8	29432
 658.4	29471
 658.9	29510
 659.4	29601
 659.9	29630
 660.5	29624
 661.0	29680
 661.5	29732
 662.1	29719
 662.6	29745
 663.1	29721
 663.6	29810
 664.2	29769
 664.7	29751
 665.2	29699
 665.7	29801
 666.3	29765
 666.8	29765
 667.3	29763
 667.8	29735
 668.4	29752
 668.9	29747
 669.4	29706
 669.9	29726
 670.5	29651
 671.0	29661
 671.5	29610
 672.0	29639
 672.6	29625
 673.1	29648
 673.6	29553
 674.1	29567
 674.7	29541
 675.2	29576
 675.7	29442
 676.2	29419
 676.8	29469
 677.3	29464
 677.8	29383
 678.3	29462
 678.9	29390
 679.4	29316
 679.9	29365
 680.4	29353
 681.0	29308
 681.5	29325
 682.0	29278
 682.5	29302
 683.1	29206
 683.6	29223
 684.1	29166
 684.6	29249
 685.1	29187
 685.7	29200
 686.2	29171
 686.7	29127
 687.2	29121
 687.8	29178
 688.3	29118
 688.8	29131
 689.3	29077
 689.8	29109
 690.4	29097
 690.9	29108
 691.4	29130
 691.9	29135
 692.4	29115
 693.0	29177
 693.5	29146
 694.0	29133
 694.5	29127
 695.1	29116
 695.6	29079
 696.1	29154
 696.6	29133
 697.1	29156
 697.7	29183
 698.2	29115
 698.7	29143
 699.2	29109
 699.7	29113
 700.3	29069
 700.8	29043
 701.3	29120
 701.8	29083
 702.3	29022
 702.8	29024
 703.4	29005
 703.9	28979
 704.4	28944
 704.9	28901
 705.4	28895
 706.0	28949
 706.5	28912
 707.0	28819
 707.5	28793
 708.0	28797
 708.5	28733
 709.1	28775
 709.6	28729
 710.1	28667
 710.6	28637
 711.1	28612
 711.7	28610
 712.2	28587
 712.7	28583
 713.2	28544
 713.7	28539
 714.2	28488
 714.8	28562
 715.3	28504
 715.8	28494
 716.3	28495
 716.8	28425
 717.3	28408
 717.8	28503
 718.4	28515
 718.9	28459
 719.4	28533
 719.9	28452
 720.4	28496
 720.9	28514
 721.4	28508
 722.0	28537
 722.5	28530
 723.0	28531
 723.5	28539
 724.0	28521
 724.5	28510
 725.0	28551
 725.6	28494
 726.1	28553
 726.6	28665
 727.1	28603
 727.6	28650
 728.1	28678
 728.6	28642
 729.1	28641
 729.7	28619
 730.2	28644
 730.7	28677
 731.2	28708
 731.7	28699
 732.2	28711
 732.7	28685
 733.2	28727
 733.8	28699
 734.3	28723
 734.8	28715
 735.3	28751
 735.8	28753
 736.3	28741
 736.8	28789
 737.3	28843
 737.8	28805
 738.4	28814
 738.9	28774
 739.4	28864
 739.9	28850
 740.4	28873
 740.9	28857
 741.4	28860
 741.9	28856
 742.4	28867
 742.9	28855
 743.4	28915
 744.0	28825
 744.5	28811
 745.0	28814
 745.5	28863
 746.0	28833
 746.5	28831
 747.0	28761
 747.5	28743
 748.0	28702
 748.5	28709
 749.0	28703
 749.5	28767
 750.0	28595
 750.5	28621
 751.1	28599
 751.6	28585
 752.1	28543
 752.6	28495
 753.1	28521
 753.6	28431
 754.1	28382
 754.6	28391
 755.1	28324
 755.6	28301
 756.1	28195
 756.6	28265
 757.1	28208
 757.6	28155
 758.1	28094
 758.6	28059
 759.1	27965
 759.6	27970
 760.1	27893
 760.7	27821
 761.2	27871
 761.7	27797
 762.2	27751
 762.7	27761
 763.2	27624
 763.7	27653
 764.2	27561
 764.7	27527
 765.2	27517
 765.7	27447
 766.2	27380
 766.7	27378
 767.2	27293
 767.7	27261
 768.2	27205
 768.7	27138
 769.2	27097
 769.7	27109
 770.2	27058
 770.7	27033
 771.2	26979
 771.7	26937
 772.2	26918
 772.7	26943
 773.2	26897
 773.7	26833
 774.2	26769
 774.7	26788
 775.2	26749
 775.7	26710
 776.2	26683
 776.7	26695
 777.2	26609
 777.7	26667
 778.2	26626
 778.7	26651
 779.2	26649
 779.7	26655
 780.2	26501
 780.7	26551
 781.2	26540
 781.7	26583
 782.2	26507
 782.6	26567
 783.1	26559
 783.6	26515
 784.1	26470
 784.6	26457
 785.1	26457
 785.6	26448
 786.1	26461
 786.6	26469
 787.1	26403
 787.6	26394
 788.1	26369
 788.6	26355
 789.1	26325
 789.6	26333
 790.1	26341
 790.6	26321
 791.1	26215
 791.6	26200
 792.0	26188
 792.5	26201
 793.0	26155
 793.5	26131
 794.0	26057
 794.5	26107
 795.0	26053
 795.5	26019
 796.0	25997
 796.5	25915
 797.0	25908
 797.5	25916
 798.0	25737
 798.4	25743
 798.9	25698
 799.4	25673
 799.9	25639
 800.4	25480
 800.9	25535
 801.4	25541
 801.9	25462
 802.4	25352
 802.9	25368
 803.3	25319
 803.8	25245
 804.3	25164
 804.8	25167
 805.3	25088
 805.8	25023
 806.3	24977
 806.8	24926
 807.2	24877
 807.7	24805
 808.2	24785
 808.7	24674
 809.2	24639
 809.7	24539
 810.2	24563
 810.7	24463
 811.1	24430
 811.6	24391
 812.1	24311
 812.6	24239
 813.1	24243
 813.6	24225
 814.1	24180
 814.5	24106
 815.0	24090
 815.5	24013
 816.0	23947
 816.5	23970
 817.0	23896
 817.4	23849
 817.9	23852
 818.4	23756
 818.9	23808
 819.4	23737
 819.9	23696
 820.3	23640
 820.8	23614
 821.3	23593
 821.8	23580
 822.3	23491
 822.7	23457
 823.2	23495
 823.7	23431
 824.2	23407
 824.7	23369
 825.2	23364
 825.6	23322
 826.1	23297
 826.6	23327
 827.1	23291
 827.6	23275
 828.0	23199
 828.5	23159
 829.0	23177
 829.5	23106
 829.9	23100
 830.4	23133
 830.9	23101
 831.4	23113
 831.9	23054
 832.3	23112
 832.8	23041
 833.3	23031
 833.8	23091
 834.2	23075
 834.7	22921
 835.2	23002
 835.7	22987
 836.1	22972
 836.6	22939
 837.1	22934
 837.6	22931
 838.0	22951
 838.5	22962
 839.0	22950
 839.5	22936
 839.9	22847
 840.4	22849
 840.9	22805
 841.4	22832
 841.8	22846
 842.3	22841
 842.8	22848
 843.3	22837
 843.7	22727
 844.2	22704
 844.7	22777
 845.1	22742
 845.6	22659
 846.1	22663
 846.6	22687
 847.0	22581
 847.5	22619
 848.0	22586
 848.4	22615
 848.9	22559
 849.4	22521
 849.8	22530
 850.3	22515
 850.8	22545
 851.3	22489
 851.7	22473
 852.2	22459
 852.7	22438
 853.1	22400
 853.6	22333
 854.1	22353
 854.5	22309
 855.0	22280
 855.5	22255
 855.9	22293
 856.4	22258
 856.9	22167
 857.3	22196
 857.8	22143
 858.3	22155
 858.7	22091
 859.2	22101
 859.7	22091
 860.1	22128
 860.6	22091
 861.1	22011
 861.5	22043
 862.0	22022
 862.4	21977
 862.9	21920
 863.4	21947
 863.8	21935
 864.3	21915
 864.8	21821
 865.2	21852
 865.7	21855
 866.1	21855
 866.6	21764
 867.1	21819
 867.5	21796
 868.0	21756
 868.5	21693
 868.9	21677
 869.4	21755
 869.8	21704
 870.3	21653
 870.8	21707
 871.2	21652
 871.7	21634
 872.1	21572
 872.6	21615
 873.0	21583
 873.5	21643
 874.0	21623
 874.4	21515
 874.9	21542
 875.3	21482
 875.8	21380
 876.2	21163
 876.7	20990
 877.2	20638
 877.6	20185
 878.1	19729
