#xlabel Wavelength (nm)
#ylabel Spectrometer Array Counts
#title Exposure time is 10000 ms
## lambda	counts
 349.8	17237
 350.3	17501
 350.8	17675
 351.3	17771
 351.9	17797
 352.4	17855
 352.9	17890
 353.4	17836
 354.0	17828
 354.5	17869
 355.0	17874
 355.5	17891
 356.0	17858
 356.6	17835
 357.1	17886
 357.6	17869
 358.1	17893
 358.7	17828
 359.2	17846
 359.7	17867
 360.2	17901
 360.8	17867
 361.3	17964
 361.8	17904
 362.3	17937
 362.9	17895
 363.4	17970
 363.9	17973
 364.4	18001
 364.9	17912
 365.5	17986
 366.0	17970
 366.5	17931
 367.0	17974
 367.6	18001
 368.1	18003
 368.6	17942
 369.1	18000
 369.7	18053
 370.2	17981
 370.7	17983
 371.2	18031
 371.8	18086
 372.3	18011
 372.8	18093
 373.3	18111
 373.9	18057
 374.4	18079
 374.9	18127
 375.5	18030
 376.0	18157
 376.5	18129
 377.0	18153
 377.6	18103
 378.1	18191
 378.6	18127
 379.1	18141
 379.7	18127
 380.2	18207
 380.7	18213
 381.2	18182
 381.8	18172
 382.3	18220
 382.8	18205
 383.4	18258
 383.9	18216
 384.4	18367
 384.9	18282
 385.5	18311
 386.0	18314
 386.5	18384
 387.1	18320
 387.6	18355
 388.1	18360
 388.6	18381
 389.2	18373
 389.7	18407
 390.2	18394
 390.8	18485
 391.3	18470
 391.8	18479
 392.3	18481
 392.9	18485
 393.4	18489
 393.9	18567
 394.5	18583
 395.0	18546
 395.5	18580
 396.0	18586
 396.6	18567
 397.1	18666
 397.6	18668
 398.2	18675
 398.7	18687
 399.2	18780
 399.8	18663
 400.3	18732
 400.8	18781
 401.3	18765
 401.9	18783
 402.4	18811
 402.9	18805
 403.5	18842
 404.0	18841
 404.5	18805
 405.1	18821
 405.6	18928
 406.1	18919
 406.7	18933
 407.2	18956
 407.7	19051
 408.2	19061
 408.8	19078
 409.3	19125
 409.8	19181
 410.4	19157
 410.9	19170
 411.4	19133
 412.0	19207
 412.5	19267
 413.0	19234
 413.6	19283
 414.1	19261
 414.6	19307
 415.2	19357
 415.7	19303
 416.2	19366
 416.8	19364
 417.3	19354
 417.8	19392
 418.4	19489
 418.9	19442
 419.4	19577
 420.0	19481
 420.5	19557
 421.0	19510
 421.5	19600
 422.1	19594
 422.6	19654
 423.1	19693
 423.7	19671
 424.2	19664
 424.7	19710
 425.3	19697
 425.8	19730
 426.3	19718
 426.9	19786
 427.4	19739
 427.9	19858
 428.5	19814
 429.0	19873
 429.6	19849
 430.1	19943
 430.6	19961
 431.2	19929
 431.7	20051
 432.2	20048
 432.8	20044
 433.3	20181
 433.8	20210
 434.4	20207
 434.9	20252
 435.4	20327
 436.0	20327
 436.5	20343
 437.0	20433
 437.6	20436
 438.1	20497
 438.6	20514
 439.2	20550
 439.7	20541
 440.2	20497
 440.8	20531
 441.3	20533
 441.8	20541
 442.4	20518
 442.9	20547
 443.5	20579
 444.0	20582
 444.5	20610
 445.1	20529
 445.6	20583
 446.1	20614
 446.7	20644
 447.2	20682
 447.7	20688
 448.3	20781
 448.8	20771
 449.3	20837
 449.9	20823
 450.4	20953
 450.9	21029
 451.5	21067
 452.0	21081
 452.6	21137
 453.1	21237
 453.6	21277
 454.2	21214
 454.7	21327
 455.2	21377
 455.8	21447
 456.3	21419
 456.8	21567
 457.4	21521
 457.9	21545
 458.5	21601
 459.0	21571
 459.5	21615
 460.1	21583
 460.6	21631
 461.1	21620
 461.7	21671
 462.2	21624
 462.7	21665
 463.3	21605
 463.8	21675
 464.4	21746
 464.9	21704
 465.4	21775
 466.0	21699
 466.5	21785
 467.0	21749
 467.6	21827
 468.1	21934
 468.7	21895
 469.2	21857
 469.7	21971
 470.3	21985
 470.8	22049
 471.3	22055
 471.9	22060
 472.4	22131
 473.0	22197
 473.5	22245
 474.0	22266
 474.6	22303
 475.1	22325
 475.6	22420
 476.2	22452
 476.7	22451
 477.3	22529
 477.8	22490
 478.3	22442
 478.9	22663
 479.4	22579
 479.9	22622
 480.5	22628
 481.0	22685
 481.6	22731
 482.1	22822
 482.6	22831
 483.2	22875
 483.7	23004
 484.2	22977
 484.8	22857
 485.3	22973
 485.9	23069
 486.4	23063
 486.9	23106
 487.5	23093
 488.0	23129
 488.6	23210
 489.1	23251
 489.6	23320
 490.2	23332
 490.7	23321
 491.2	23298
 491.8	23370
 492.3	23327
 492.9	23390
 493.4	23402
 493.9	23424
 494.5	23430
 495.0	23489
 495.6	23410
 496.1	23417
 496.6	23467
 497.2	23390
 497.7	23364
 498.2	23435
 498.8	23449
 499.3	23377
 499.9	23423
 500.4	23432
 500.9	23433
 501.5	23441
 502.0	23540
 502.6	23547
 503.1	23657
 503.6	23657
 504.2	23655
 504.7	23702
 505.2	23812
 505.8	23845
 506.3	23984
 506.9	24053
 507.4	24085
 507.9	24123
 508.5	24212
 509.0	24313
 509.6	24446
 510.1	24472
 510.6	24567
 511.2	24641
 511.7	24687
 512.2	24798
 512.8	24863
 513.3	24885
 513.9	24907
 514.4	24989
 514.9	25094
 515.5	25018
 516.0	25095
 516.6	25063
 517.1	25103
 517.6	25074
 518.2	25043
 518.7	24967
 519.3	25002
 519.8	25006
 520.3	24973
 520.9	24915
 521.4	24896
 521.9	24921
 522.5	24821
 523.0	24809
 523.6	24825
 524.1	24673
 524.6	24709
 525.2	24731
 525.7	24767
 526.3	24712
 526.8	24812
 527.3	24774
 527.9	24820
 528.4	24833
 528.9	24913
 529.5	24961
 530.0	24986
 530.6	25076
 531.1	25132
 531.6	25101
 532.2	25265
 532.7	25287
 533.3	25389
 533.8	25558
 534.3	25659
 534.9	25718
 535.4	25738
 536.0	25871
 536.5	25959
 537.0	26000
 537.6	26077
 538.1	26185
 538.6	26255
 539.2	26249
 539.7	26311
 540.3	26445
 540.8	26447
 541.3	26436
 541.9	26497
 542.4	26521
 543.0	26593
 543.5	26573
 544.0	26563
 544.6	26601
 545.1	26614
 545.6	26642
 546.2	26629
 546.7	26534
 547.3	26594
 547.8	26560
 548.3	26599
 548.9	26504
 549.4	26501
 550.0	26463
 550.5	26525
 551.0	26554
 551.6	26500
 552.1	26507
 552.6	26509
 553.2	26463
 553.7	26450
 554.3	26485
 554.8	26551
 555.3	26415
 555.9	26494
 556.4	26476
 556.9	26597
 557.5	26635
 558.0	26615
 558.6	26619
 559.1	26696
 559.6	26709
 560.2	26743
 560.7	26777
 561.3	26765
 561.8	26770
 562.3	26913
 562.9	26923
 563.4	26987
 563.9	26996
 564.5	27026
 565.0	27033
 565.6	27067
 566.1	27083
 566.6	27094
 567.2	27100
 567.7	27198
 568.2	27143
 568.8	27154
 569.3	27142
 569.9	27207
 570.4	27198
 570.9	27189
 571.5	27189
 572.0	27201
 572.5	27259
 573.1	27222
 573.6	27296
 574.1	27293
 574.7	27315
 575.2	27313
 575.8	27373
 576.3	27470
 576.8	27459
 577.4	27497
 577.9	27537
 578.4	27542
 579.0	27581
 579.5	27717
 580.1	27669
 580.6	27725
 581.1	27835
 581.7	27885
 582.2	27871
 582.7	27942
 583.3	28007
 583.8	28016
 584.3	28002
 584.9	28070
 585.4	28097
 586.0	28107
 586.5	28169
 587.0	28162
 587.6	28251
 588.1	28228
 588.6	28308
 589.2	28271
 589.7	28301
 590.2	28291
 590.8	28277
 591.3	28311
 591.9	28248
 592.4	28291
 592.9	28216
 593.5	28185
 594.0	28171
 594.5	28161
 595.1	28108
 595.6	28059
 596.1	28087
 596.7	28027
 597.2	28038
 597.7	27955
 598.3	27945
 598.8	27892
 599.3	27873
 599.9	27809
 600.4	27787
 601.0	27773
 601.5	27747
 602.0	27725
 602.6	27674
 603.1	27685
 603.6	27693
 604.2	27773
 604.7	27704
 605.2	27777
 605.8	27707
 606.3	27745
 606.8	27826
 607.4	27839
 607.9	27905
 608.4	27878
 609.0	27935
 609.5	28006
 610.0	28010
 610.6	28132
 611.1	28082
 611.6	28163
 612.2	28199
 612.7	28285
 613.2	28316
 613.8	28301
 614.3	28372
 614.8	28456
 615.4	28460
 615.9	28594
 616.4	28703
 617.0	28707
 617.5	28831
 618.0	28911
 618.6	28923
 619.1	29021
 619.6	29153
 620.2	29227
 620.7	29367
 621.2	29404
 621.8	29490
 622.3	29581
 622.8	29616
 623.4	29691
 623.9	29791
 624.4	29810
 625.0	29839
 625.5	29850
 626.0	29883
 626.6	29947
 627.1	29926
 627.6	29885
 628.2	29855
 628.7	29897
 629.2	29865
 629.8	29884
 630.3	29857
 630.8	29823
 631.4	29771
 631.9	29751
 632.4	29609
 632.9	29579
 633.5	29532
 634.0	29455
 634.5	29468
 635.1	29374
 635.6	29324
 636.1	29260
 636.7	29246
 637.2	29203
 637.7	29076
 638.3	29129
 638.8	29082
 639.3	29062
 639.8	28975
 640.4	28969
 640.9	28958
 641.4	28856
 642.0	28810
 642.5	28817
 643.0	28776
 643.6	28847
 644.1	28799
 644.6	28811
 645.1	28825
 645.7	28822
 646.2	28780
 646.7	28808
 647.3	28833
 647.8	28857
 648.3	28841
 648.9	28897
 649.4	28831
 649.9	28911
 650.4	28947
 651.0	29019
 651.5	29056
 652.0	29127
 652.6	29111
 653.1	29217
 653.6	29163
 654.1	29253
 654.7	29255
 655.2	29365
 655.7	29429
 656.3	29462
 656.8	29455
 657.3	29539
 657.8	29525
 658.4	29557
 658.9	29601
 659.4	29689
 659.9	29715
 660.5	29710
 661.0	29768
 661.5	29828
 662.1	29812
 662.6	29833
 663.1	29811
 663.6	29905
 664.2	29861
 664.7	29837
 665.2	29790
 665.7	29893
 666.3	29861
 666.8	29854
 667.3	29854
 667.8	29825
 668.4	29837
 668.9	29834
 669.4	29803
 669.9	29817
 670.5	29740
 671.0	29751
 671.5	29702
 672.0	29735
 672.6	29713
 673.1	29738
 673.6	29647
 674.1	29653
 674.7	29629
 675.2	29663
 675.7	29528
 676.2	29508
 676.8	29555
 677.3	29551
 677.8	29473
 678.3	29550
 678.9	29485
 679.4	29410
 679.9	29452
 680.4	29446
 681.0	29401
 681.5	29419
 682.0	29366
 682.5	29391
 683.1	29292
 683.6	29309
 684.1	29249
 684.6	29340
 685.1	29277
 685.7	29287
 686.2	29257
 686.7	29220
 687.2	29209
 687.8	29264
 688.3	29205
 688.8	29218
 689.3	29162
 689.8	29194
 690.4	29183
 690.9	29197
 691.4	29219
 691.9	29223
 692.4	29203
 693.0	29264
 693.5	29231
 694.0	29224
 694.5	29218
 695.1	29201
 695.6	29171
 696.1	29236
 696.6	29227
 697.1	29241
 697.7	29269
 698.2	29209
 698.7	29229
 699.2	29193
 699.7	29198
 700.3	29149
 700.8	29129
 701.3	29211
 701.8	29168
 702.3	29106
 702.8	29107
 703.4	29094
 703.9	29065
 704.4	29031
 704.9	28988
 705.4	28981
 706.0	29036
 706.5	28999
 707.0	28907
 707.5	28878
 708.0	28885
 708.5	28821
 709.1	28861
 709.6	28811
 710.1	28757
 710.6	28723
 711.1	28693
 711.7	28691
 712.2	28673
 712.7	28674
 713.2	28632
 713.7	28624
 714.2	28578
 714.8	28649
 715.3	28583
 715.8	28571
 716.3	28577
 716.8	28505
 717.3	28489
 717.8	28583
 718.4	28597
 718.9	28546
 719.4	28618
 719.9	28532
 720.4	28579
 720.9	28599
 721.4	28582
 722.0	28622
 722.5	28611
 723.0	28614
 723.5	28625
 724.0	28602
 724.5	28593
 725.0	28635
 725.6	28582
 726.1	28638
 726.6	28744
 727.1	28689
 727.6	28736
 728.1	28758
 728.6	28722
 729.1	28717
 729.7	28703
 730.2	28730
 730.7	28756
 731.2	28789
 731.7	28781
 732.2	28799
 732.7	28769
 733.2	28805
 733.8	28778
 734.3	28803
 734.8	28795
 735.3	28830
 735.8	28831
 736.3	28825
 736.8	28877
 737.3	28932
 737.8	28887
 738.4	28895
 738.9	28858
 739.4	28951
 739.9	28933
 740.4	28958
 740.9	28930
 741.4	28946
 741.9	28938
 742.4	28958
 742.9	28935
 743.4	28999
 744.0	28907
 744.5	28895
 745.0	28897
 745.5	28951
 746.0	28911
 746.5	28913
 747.0	28841
 747.5	28813
 748.0	28780
 748.5	28787
 749.0	28789
 749.5	28846
 750.0	28681
 750.5	28707
 751.1	28680
 751.6	28667
 752.1	28629
 752.6	28578
 753.1	28592
 753.6	28509
 754.1	28455
 754.6	28469
 755.1	28401
 755.6	28386
 756.1	28277
 756.6	28337
 757.1	28283
 757.6	28237
 758.1	28171
 758.6	28138
 759.1	28044
 759.6	28051
 760.1	27970
 760.7	27895
 761.2	27948
 761.7	27877
 762.2	27834
 762.7	27837
 763.2	27697
 763.7	27727
 764.2	27641
 764.7	27599
 765.2	27594
 765.7	27524
 766.2	27456
 766.7	27455
 767.2	27373
 767.7	27339
 768.2	27275
 768.7	27209
 769.2	27170
 769.7	27181
 770.2	27131
 770.7	27102
 771.2	27051
 771.7	27010
 772.2	26995
 772.7	27015
 773.2	26975
 773.7	26907
 774.2	26838
 774.7	26861
 775.2	26822
 775.7	26788
 776.2	26757
 776.7	26767
 777.2	26685
 777.7	26735
 778.2	26699
 778.7	26729
 779.2	26719
 779.7	26732
 780.2	26579
 780.7	26620
 781.2	26612
 781.7	26661
 782.2	26579
 782.6	26640
 783.1	26627
 783.6	26582
 784.1	26542
 784.6	26518
 785.1	26527
 785.6	26520
 786.1	26527
 786.6	26537
 787.1	26476
 787.6	26467
 788.1	26443
 788.6	26422
 789.1	26396
 789.6	26412
 790.1	26411
 790.6	26393
 791.1	26288
 791.6	26272
 792.0	26263
 792.5	26269
 793.0	26223
 793.5	26197
 794.0	26118
 794.5	26182
 795.0	26124
 795.5	26088
 796.0	26064
 796.5	25989
 797.0	25972
 797.5	25987
 798.0	25811
 798.4	25813
 798.9	25762
 799.4	25735
 799.9	25702
 800.4	25550
 800.9	25607
 801.4	25605
 801.9	25526
 802.4	25415
 802.9	25430
 803.3	25381
 803.8	25310
 804.3	25227
 804.8	25236
 805.3	25155
 805.8	25085
 806.3	25043
 806.8	24986
 807.2	24939
 807.7	24874
 808.2	24852
 808.7	24735
 809.2	24698
 809.7	24600
 810.2	24627
 810.7	24521
 811.1	24497
 811.6	24454
 812.1	24373
 812.6	24297
 813.1	24304
 813.6	24289
 814.1	24240
 814.5	24167
 815.0	24147
 815.5	24075
 816.0	24005
 816.5	24036
 817.0	23957
 817.4	23913
 817.9	23911
 818.4	23817
 818.9	23873
 819.4	23799
 819.9	23746
 820.3	23699
 820.8	23670
 821.3	23652
 821.8	23635
 822.3	23552
 822.7	23513
 823.2	23549
 823.7	23486
 824.2	23465
 824.7	23424
 825.2	23414
 825.6	23373
 826.1	23357
 826.6	23383
 827.1	23346
 827.6	23329
 828.0	23258
 828.5	23219
 829.0	23229
 829.5	23164
 829.9	23154
 830.4	23191
 830.9	23159
 831.4	23171
 831.9	23112
 832.3	23170
 832.8	23100
 833.3	23092
 833.8	23154
 834.2	23131
 834.7	22977
 835.2	23053
 835.7	23045
 836.1	23022
 836.6	22998
 837.1	22988
 837.6	22985
 838.0	23001
 838.5	23015
 839.0	23006
 839.5	22995
 839.9	22901
 840.4	22906
 840.9	22858
 841.4	22886
 841.8	22902
 842.3	22902
 842.8	22903
 843.3	22897
 843.7	22785
 844.2	22759
 844.7	22831
 845.1	22791
 845.6	22713
 846.1	22719
 846.6	22739
 847.0	22636
 847.5	22674
 848.0	22638
 848.4	22664
 848.9	22606
 849.4	22579
 849.8	22582
 850.3	22570
 850.8	22598
 851.3	22543
 851.7	22526
 852.2	22513
 852.7	22490
 853.1	22452
 853.6	22390
 854.1	22410
 854.5	22361
 855.0	22328
 855.5	22308
 855.9	22347
 856.4	22313
 856.9	22218
 857.3	22249
 857.8	22196
 858.3	22206
 858.7	22139
 859.2	22145
 859.7	22138
 860.1	22179
 860.6	22148
 861.1	22065
 861.5	22091
 862.0	22071
 862.4	22026
 862.9	21981
 863.4	21999
 863.8	21985
 864.3	21967
 864.8	21873
 865.2	21899
 865.7	21905
 866.1	21899
 866.6	21814
 867.1	21873
 867.5	21843
 868.0	21798
 868.5	21741
 868.9	21727
 869.4	21811
 869.8	21753
 870.3	21703
 870.8	21757
 871.2	21700
 871.7	21676
 872.1	21612
 872.6	21639
 873.0	21595
 873.5	21647
 874.0	21621
 874.4	21501
 874.9	21539
 875.3	21529
 875.8	21495
 876.2	21390
 876.7	21358
 877.2	21133
 877.6	20730
 878.1	20116
