#xlabel Wavelength (nm)
#ylabel Spectrometer Array Counts
#title Exposure time is 9300 ms
## lambda	counts
 349.8	16732
 350.3	17002
 350.8	17246
 351.3	17423
 351.9	17519
 352.4	17619
 352.9	17682
 353.4	17636
 354.0	17631
 354.5	17667
 355.0	17671
 355.5	17680
 356.0	17639
 356.6	17607
 357.1	17650
 357.6	17634
 358.1	17662
 358.7	17603
 359.2	17615
 359.7	17633
 360.2	17663
 360.8	17631
 361.3	17721
 361.8	17662
 362.3	17696
 362.9	17656
 363.4	17723
 363.9	17719
 364.4	17744
 364.9	17658
 365.5	17725
 366.0	17703
 366.5	17659
 367.0	17708
 367.6	17721
 368.1	17723
 368.6	17658
 369.1	17712
 369.7	17752
 370.2	17679
 370.7	17674
 371.2	17726
 371.8	17763
 372.3	17688
 372.8	17757
 373.3	17767
 373.9	17717
 374.4	17728
 374.9	17774
 375.5	17671
 376.0	17786
 376.5	17746
 377.0	17768
 377.6	17708
 378.1	17779
 378.6	17714
 379.1	17719
 379.7	17703
 380.2	17762
 380.7	17762
 381.2	17713
 381.8	17704
 382.3	17738
 382.8	17715
 383.4	17759
 383.9	17713
 384.4	17852
 384.9	17767
 385.5	17781
 386.0	17781
 386.5	17848
 387.1	17782
 387.6	17793
 388.1	17796
 388.6	17807
 389.2	17793
 389.7	17815
 390.2	17783
 390.8	17864
 391.3	17827
 391.8	17821
 392.3	17807
 392.9	17797
 393.4	17785
 393.9	17851
 394.5	17850
 395.0	17794
 395.5	17811
 396.0	17806
 396.6	17779
 397.1	17861
 397.6	17853
 398.2	17855
 398.7	17855
 399.2	17936
 399.8	17815
 400.3	17869
 400.8	17911
 401.3	17893
 401.9	17903
 402.4	17917
 402.9	17897
 403.5	17923
 404.0	17909
 404.5	17853
 405.1	17855
 405.6	17948
 406.1	17908
 406.7	17917
 407.2	17918
 407.7	17992
 408.2	17979
 408.8	17981
 409.3	18007
 409.8	18044
 410.4	18001
 410.9	17996
 411.4	17954
 412.0	18007
 412.5	18052
 413.0	17999
 413.6	18035
 414.1	17997
 414.6	18025
 415.2	18057
 415.7	17996
 416.2	18043
 416.8	18018
 417.3	17999
 417.8	18018
 418.4	18103
 418.9	18032
 419.4	18156
 420.0	18041
 420.5	18102
 421.0	18047
 421.5	18121
 422.1	18101
 422.6	18148
 423.1	18164
 423.7	18136
 424.2	18119
 424.7	18154
 425.3	18121
 425.8	18139
 426.3	18129
 426.9	18189
 427.4	18122
 427.9	18223
 428.5	18166
 429.0	18199
 429.6	18153
 430.1	18224
 430.6	18216
 431.2	18155
 431.7	18242
 432.2	18207
 432.8	18179
 433.3	18278
 433.8	18269
 434.4	18240
 434.9	18251
 435.4	18289
 436.0	18265
 436.5	18255
 437.0	18322
 437.6	18297
 438.1	18338
 438.6	18335
 439.2	18367
 439.7	18355
 440.2	18302
 440.8	18327
 441.3	18325
 441.8	18333
 442.4	18295
 442.9	18322
 443.5	18354
 444.0	18346
 444.5	18368
 445.1	18293
 445.6	18323
 446.1	18339
 446.7	18347
 447.2	18370
 447.7	18354
 448.3	18414
 448.8	18367
 449.3	18399
 449.9	18343
 450.4	18433
 450.9	18466
 451.5	18459
 452.0	18430
 452.6	18450
 453.1	18489
 453.6	18491
 454.2	18388
 454.7	18451
 455.2	18467
 455.8	18511
 456.3	18447
 456.8	18568
 457.4	18490
 457.9	18500
 458.5	18547
 459.0	18501
 459.5	18542
 460.1	18493
 460.6	18541
 461.1	18521
 461.7	18567
 462.2	18519
 462.7	18558
 463.3	18487
 463.8	18561
 464.4	18618
 464.9	18561
 465.4	18621
 466.0	18520
 466.5	18590
 467.0	18525
 467.6	18591
 468.1	18668
 468.7	18596
 469.2	18532
 469.7	18614
 470.3	18595
 470.8	18626
 471.3	18606
 471.9	18562
 472.4	18610
 473.0	18645
 473.5	18662
 474.0	18648
 474.6	18657
 475.1	18643
 475.6	18709
 476.2	18719
 476.7	18695
 477.3	18747
 477.8	18690
 478.3	18623
 478.9	18806
 479.4	18695
 479.9	18711
 480.5	18693
 481.0	18711
 481.6	18738
 482.1	18787
 482.6	18770
 483.2	18777
 483.7	18880
 484.2	18813
 484.8	18664
 485.3	18750
 485.9	18822
 486.4	18779
 486.9	18800
 487.5	18761
 488.0	18768
 488.6	18822
 489.1	18829
 489.6	18880
 490.2	18871
 490.7	18833
 491.2	18803
 491.8	18851
 492.3	18807
 492.9	18846
 493.4	18862
 493.9	18877
 494.5	18878
 495.0	18945
 495.6	18859
 496.1	18872
 496.6	18927
 497.2	18848
 497.7	18812
 498.2	18903
 498.8	18921
 499.3	18835
 499.9	18893
 500.4	18885
 500.9	18868
 501.5	18856
 502.0	18924
 502.6	18903
 503.1	18976
 503.6	18942
 504.2	18896
 504.7	18902
 505.2	18967
 505.8	18962
 506.3	19023
 506.9	19030
 507.4	19001
 507.9	18973
 508.5	19005
 509.0	19045
 509.6	19103
 510.1	19074
 510.6	19110
 511.2	19131
 511.7	19113
 512.2	19171
 512.8	19190
 513.3	19155
 513.9	19148
 514.4	19202
 514.9	19271
 515.5	19172
 516.0	19244
 516.6	19217
 517.1	19265
 517.6	19244
 518.2	19229
 518.7	19165
 519.3	19215
 519.8	19254
 520.3	19249
 520.9	19204
 521.4	19207
 521.9	19261
 522.5	19188
 523.0	19212
 523.6	19246
 524.1	19103
 524.6	19154
 525.2	19175
 525.7	19212
 526.3	19131
 526.8	19221
 527.3	19169
 527.9	19191
 528.4	19176
 528.9	19233
 529.5	19247
 530.0	19231
 530.6	19274
 531.1	19275
 531.6	19201
 532.2	19314
 532.7	19267
 533.3	19303
 533.8	19423
 534.3	19451
 534.9	19445
 535.4	19393
 536.0	19465
 536.5	19508
 537.0	19470
 537.6	19492
 538.1	19539
 538.6	19559
 539.2	19502
 539.7	19513
 540.3	19616
 540.8	19569
 541.3	19539
 541.9	19571
 542.4	19571
 543.0	19635
 543.5	19592
 544.0	19569
 544.6	19615
 545.1	19623
 545.6	19658
 546.2	19642
 546.7	19559
 547.3	19613
 547.8	19585
 548.3	19639
 548.9	19563
 549.4	19565
 550.0	19525
 550.5	19593
 551.0	19634
 551.6	19583
 552.1	19603
 552.6	19599
 553.2	19580
 553.7	19555
 554.3	19587
 554.8	19659
 555.3	19519
 555.9	19587
 556.4	19551
 556.9	19639
 557.5	19665
 558.0	19620
 558.6	19595
 559.1	19665
 559.6	19645
 560.2	19647
 560.7	19651
 561.3	19625
 561.8	19599
 562.3	19715
 562.9	19699
 563.4	19725
 563.9	19722
 564.5	19721
 565.0	19710
 565.6	19730
 566.1	19724
 566.6	19725
 567.2	19719
 567.7	19821
 568.2	19724
 568.8	19738
 569.3	19707
 569.9	19780
 570.4	19772
 570.9	19741
 571.5	19727
 572.0	19727
 572.5	19780
 573.1	19730
 573.6	19773
 574.1	19762
 574.7	19768
 575.2	19733
 575.8	19766
 576.3	19841
 576.8	19811
 577.4	19813
 577.9	19835
 578.4	19792
 579.0	19803
 579.5	19885
 580.1	19822
 580.6	19826
 581.1	19903
 581.7	19921
 582.2	19853
 582.7	19899
 583.3	19941
 583.8	19909
 584.3	19861
 584.9	19918
 585.4	19920
 586.0	19892
 586.5	19927
 587.0	19887
 587.6	19957
 588.1	19911
 588.6	19982
 589.2	19926
 589.7	19941
 590.2	19925
 590.8	19921
 591.3	19943
 591.9	19893
 592.4	19956
 592.9	19893
 593.5	19888
 594.0	19875
 594.5	19895
 595.1	19874
 595.6	19853
 596.1	19911
 596.7	19871
 597.2	19905
 597.7	19846
 598.3	19859
 598.8	19827
 599.3	19839
 599.9	19824
 600.4	19817
 601.0	19821
 601.5	19805
 602.0	19797
 602.6	19748
 603.1	19767
 603.6	19764
 604.2	19865
 604.7	19771
 605.2	19834
 605.8	19754
 606.3	19773
 606.8	19843
 607.4	19822
 607.9	19851
 608.4	19803
 609.0	19831
 609.5	19875
 610.0	19849
 610.6	19937
 611.1	19866
 611.6	19875
 612.2	19879
 612.7	19943
 613.2	19925
 613.8	19857
 614.3	19889
 614.8	19941
 615.4	19869
 615.9	19950
 616.4	19998
 617.0	19958
 617.5	20044
 618.0	20053
 618.6	19975
 619.1	20012
 619.6	20087
 620.2	20077
 620.7	20130
 621.2	20092
 621.8	20141
 622.3	20156
 622.8	20111
 623.4	20151
 623.9	20201
 624.4	20183
 625.0	20173
 625.5	20183
 626.0	20193
 626.6	20235
 627.1	20227
 627.6	20182
 628.2	20145
 628.7	20180
 629.2	20164
 629.8	20191
 630.3	20199
 630.8	20185
 631.4	20165
 631.9	20194
 632.4	20089
 632.9	20103
 633.5	20106
 634.0	20067
 634.5	20148
 635.1	20077
 635.6	20053
 636.1	20045
 636.7	20098
 637.2	20083
 637.7	19995
 638.3	20092
 638.8	20087
 639.3	20090
 639.8	20051
 640.4	20065
 640.9	20089
 641.4	19999
 642.0	19986
 642.5	20013
 643.0	19984
 643.6	20059
 644.1	20021
 644.6	20027
 645.1	20069
 645.7	20040
 646.2	20006
 646.7	20026
 647.3	20054
 647.8	20050
 648.3	20038
 648.9	20071
 649.4	19987
 649.9	20055
 650.4	20061
 651.0	20100
 651.5	20109
 652.0	20161
 652.6	20098
 653.1	20174
 653.6	20094
 654.1	20167
 654.7	20122
 655.2	20194
 655.7	20230
 656.3	20242
 656.8	20188
 657.3	20244
 657.8	20191
 658.4	20177
 658.9	20182
 659.4	20273
 659.9	20256
 660.5	20235
 661.0	20276
 661.5	20319
 662.1	20275
 662.6	20287
 663.1	20250
 663.6	20322
 664.2	20288
 664.7	20261
 665.2	20187
 665.7	20298
 666.3	20274
 666.8	20281
 667.3	20279
 667.8	20242
 668.4	20275
 668.9	20283
 669.4	20257
 669.9	20294
 670.5	20235
 671.0	20251
 671.5	20201
 672.0	20263
 672.6	20266
 673.1	20295
 673.6	20205
 674.1	20243
 674.7	20227
 675.2	20282
 675.7	20148
 676.2	20159
 676.8	20209
 677.3	20228
 677.8	20155
 678.3	20270
 678.9	20201
 679.4	20156
 679.9	20212
 680.4	20219
 681.0	20190
 681.5	20226
 682.0	20195
 682.5	20219
 683.1	20135
 683.6	20190
 684.1	20132
 684.6	20225
 685.1	20173
 685.7	20197
 686.2	20160
 686.7	20132
 687.2	20116
 687.8	20186
 688.3	20130
 688.8	20160
 689.3	20109
 689.8	20133
 690.4	20126
 690.9	20136
 691.4	20132
 691.9	20159
 692.4	20113
 693.0	20185
 693.5	20151
 694.0	20141
 694.5	20130
 695.1	20110
 695.6	20081
 696.1	20145
 696.6	20127
 697.1	20147
 697.7	20173
 698.2	20105
 698.7	20133
 699.2	20091
 699.7	20101
 700.3	20078
 700.8	20062
 701.3	20173
 701.8	20126
 702.3	20074
 702.8	20084
 703.4	20055
 703.9	20065
 704.4	20068
 704.9	20030
 705.4	20041
 706.0	20134
 706.5	20122
 707.0	20038
 707.5	20029
 708.0	20058
 708.5	20011
 709.1	20077
 709.6	20049
 710.1	20019
 710.6	19996
 711.1	20007
 711.7	20026
 712.2	20023
 712.7	20030
 713.2	20015
 713.7	20021
 714.2	19980
 714.8	20058
 715.3	20013
 715.8	20020
 716.3	20023
 716.8	19943
 717.3	19928
 717.8	20027
 718.4	20053
 718.9	19983
 719.4	20059
 719.9	19984
 720.4	20025
 720.9	20027
 721.4	20019
 722.0	20041
 722.5	20027
 723.0	20019
 723.5	20026
 724.0	19986
 724.5	19983
 725.0	19998
 725.6	19937
 726.1	19990
 726.6	20095
 727.1	20035
 727.6	20068
 728.1	20087
 728.6	20050
 729.1	20035
 729.7	20025
 730.2	20049
 730.7	20084
 731.2	20108
 731.7	20095
 732.2	20099
 732.7	20086
 733.2	20126
 733.8	20101
 734.3	20117
 734.8	20097
 735.3	20111
 735.8	20094
 736.3	20075
 736.8	20095
 737.3	20133
 737.8	20082
 738.4	20086
 738.9	20039
 739.4	20118
 739.9	20103
 740.4	20109
 740.9	20103
 741.4	20097
 741.9	20092
 742.4	20107
 742.9	20091
 743.4	20176
 744.0	20096
 744.5	20093
 745.0	20109
 745.5	20177
 746.0	20154
 746.5	20161
 747.0	20112
 747.5	20097
 748.0	20067
 748.5	20083
 749.0	20098
 749.5	20185
 750.0	20029
 750.5	20091
 751.1	20099
 751.6	20099
 752.1	20086
 752.6	20055
 753.1	20085
 753.6	20028
 754.1	19998
 754.6	20049
 755.1	20009
 755.6	20015
 756.1	19945
 756.6	20036
 757.1	20007
 757.6	19988
 758.1	19963
 758.6	19979
 759.1	19910
 759.6	19944
 760.1	19893
 760.7	19870
 761.2	19945
 761.7	19884
 762.2	19870
 762.7	19932
 763.2	19789
 763.7	19879
 764.2	19812
 764.7	19823
 765.2	19855
 765.7	19827
 766.2	19785
 766.7	19826
 767.2	19782
 767.7	19799
 768.2	19775
 768.7	19745
 769.2	19739
 769.7	19789
 770.2	19757
 770.7	19759
 771.2	19745
 771.7	19719
 772.2	19733
 772.7	19777
 773.2	19760
 773.7	19715
 774.2	19662
 774.7	19714
 775.2	19715
 775.7	19685
 776.2	19679
 776.7	19701
 777.2	19636
 777.7	19706
 778.2	19690
 778.7	19725
 779.2	19739
 779.7	19767
 780.2	19618
 780.7	19687
 781.2	19694
 781.7	19758
 782.2	19682
 782.6	19754
 783.1	19755
 783.6	19725
 784.1	19696
 784.6	19686
 785.1	19697
 785.6	19687
 786.1	19719
 786.6	19737
 787.1	19684
 787.6	19687
 788.1	19676
 788.6	19667
 789.1	19668
 789.6	19709
 790.1	19719
 790.6	19717
 791.1	19626
 791.6	19635
 792.0	19658
 792.5	19690
 793.0	19679
 793.5	19671
 794.0	19607
 794.5	19695
 795.0	19683
 795.5	19660
 796.0	19667
 796.5	19625
 797.0	19651
 797.5	19689
 798.0	19553
 798.4	19594
 798.9	19582
 799.4	19598
 799.9	19605
 800.4	19481
 800.9	19571
 801.4	19640
 801.9	19599
 802.4	19543
 802.9	19601
 803.3	19596
 803.8	19563
 804.3	19512
 804.8	19582
 805.3	19533
 805.8	19521
 806.3	19524
 806.8	19501
 807.2	19498
 807.7	19470
 808.2	19509
 808.7	19430
 809.2	19436
 809.7	19379
 810.2	19444
 810.7	19386
 811.1	19401
 811.6	19399
 812.1	19361
 812.6	19325
 813.1	19376
 813.6	19391
 814.1	19370
 814.5	19327
 815.0	19345
 815.5	19313
 816.0	19271
 816.5	19339
 817.0	19289
 817.4	19272
 817.9	19310
 818.4	19249
 818.9	19323
 819.4	19278
 819.9	19263
 820.3	19237
 820.8	19238
 821.3	19236
 821.8	19246
 822.3	19206
 822.7	19187
 823.2	19241
 823.7	19195
 824.2	19199
 824.7	19179
 825.2	19203
 825.6	19178
 826.1	19175
 826.6	19219
 827.1	19211
 827.6	19203
 828.0	19150
 828.5	19114
 829.0	19153
 829.5	19098
 829.9	19111
 830.4	19161
 830.9	19145
 831.4	19169
 831.9	19135
 832.3	19215
 832.8	19162
 833.3	19150
 833.8	19231
 834.2	19223
 834.7	19079
 835.2	19170
 835.7	19167
 836.1	19162
 836.6	19143
 837.1	19153
 837.6	19162
 838.0	19195
 838.5	19215
 839.0	19217
 839.5	19207
 839.9	19131
 840.4	19138
 840.9	19108
 841.4	19150
 841.8	19167
 842.3	19180
 842.8	19201
 843.3	19193
 843.7	19096
 844.2	19085
 844.7	19173
 845.1	19145
 845.6	19075
 846.1	19091
 846.6	19129
 847.0	19033
 847.5	19078
 848.0	19065
 848.4	19102
 848.9	19077
 849.4	19057
 849.8	19082
 850.3	19075
 850.8	19125
 851.3	19089
 851.7	19083
 852.2	19091
 852.7	19082
 853.1	19062
 853.6	19007
 854.1	19053
 854.5	19020
 855.0	19011
 855.5	19007
 855.9	19067
 856.4	19055
 856.9	18969
 857.3	19026
 857.8	19000
 858.3	19047
 858.7	18999
 859.2	19015
 859.7	19010
 860.1	19063
 860.6	19045
 861.1	18994
 861.5	19033
 862.0	19043
 862.4	19011
 862.9	18972
 863.4	19020
 863.8	19027
 864.3	19022
 864.8	18938
 865.2	18993
 865.7	19017
 866.1	19027
 866.6	18946
 867.1	19025
 867.5	19001
 868.0	18990
 868.5	18937
 868.9	18953
 869.4	19046
 869.8	18997
 870.3	18950
 870.8	19016
 871.2	18965
 871.7	18959
 872.1	18899
 872.6	18953
 873.0	18929
 873.5	19014
 874.0	19019
 874.4	18915
 874.9	18975
 875.3	18961
 875.8	18891
 876.2	18719
 876.7	18596
 877.2	18281
 877.6	17874
 878.1	17471
