#xlabel Wavelength (nm)
#ylabel Spectrometer Array Counts
#title Exposure time is 9300 ms
## lambda	counts
 349.8	16855
 350.3	17115
 350.8	17363
 351.3	17553
 351.9	17655
 352.4	17769
 352.9	17851
 353.4	17815
 354.0	17822
 354.5	17867
 355.0	17872
 355.5	17885
 356.0	17842
 356.6	17811
 357.1	17859
 357.6	17839
 358.1	17870
 358.7	17812
 359.2	17836
 359.7	17852
 360.2	17885
 360.8	17859
 361.3	17956
 361.8	17901
 362.3	17936
 362.9	17905
 363.4	17977
 363.9	17985
 364.4	18006
 364.9	17931
 365.5	18003
 366.0	17991
 366.5	17946
 367.0	18000
 367.6	18017
 368.1	18025
 368.6	17971
 369.1	18029
 369.7	18078
 370.2	18011
 370.7	18014
 371.2	18061
 371.8	18115
 372.3	18048
 372.8	18123
 373.3	18147
 373.9	18099
 374.4	18120
 374.9	18171
 375.5	18075
 376.0	18202
 376.5	18177
 377.0	18202
 377.6	18157
 378.1	18235
 378.6	18192
 379.1	18198
 379.7	18192
 380.2	18265
 380.7	18279
 381.2	18240
 381.8	18241
 382.3	18287
 382.8	18274
 383.4	18325
 383.9	18284
 384.4	18429
 384.9	18353
 385.5	18379
 386.0	18384
 386.5	18460
 387.1	18397
 387.6	18415
 388.1	18431
 388.6	18453
 389.2	18449
 389.7	18487
 390.2	18477
 390.8	18573
 391.3	18555
 391.8	18565
 392.3	18569
 392.9	18579
 393.4	18588
 393.9	18678
 394.5	18688
 395.0	18653
 395.5	18691
 396.0	18702
 396.6	18685
 397.1	18780
 397.6	18786
 398.2	18794
 398.7	18799
 399.2	18894
 399.8	18775
 400.3	18843
 400.8	18891
 401.3	18882
 401.9	18901
 402.4	18932
 402.9	18924
 403.5	18966
 404.0	18969
 404.5	18935
 405.1	18954
 405.6	19067
 406.1	19052
 406.7	19076
 407.2	19107
 407.7	19204
 408.2	19210
 408.8	19233
 409.3	19281
 409.8	19335
 410.4	19322
 410.9	19343
 411.4	19311
 412.0	19389
 412.5	19450
 413.0	19415
 413.6	19472
 414.1	19453
 414.6	19496
 415.2	19549
 415.7	19506
 416.2	19565
 416.8	19565
 417.3	19571
 417.8	19599
 418.4	19703
 418.9	19662
 419.4	19802
 420.0	19707
 420.5	19783
 421.0	19747
 421.5	19839
 422.1	19827
 422.6	19895
 423.1	19922
 423.7	19918
 424.2	19914
 424.7	19954
 425.3	19944
 425.8	19973
 426.3	19979
 426.9	20051
 427.4	20005
 427.9	20121
 428.5	20087
 429.0	20141
 429.6	20126
 430.1	20230
 430.6	20256
 431.2	20232
 431.7	20355
 432.2	20355
 432.8	20365
 433.3	20505
 433.8	20538
 434.4	20547
 434.9	20595
 435.4	20670
 436.0	20681
 436.5	20703
 437.0	20788
 437.6	20791
 438.1	20857
 438.6	20875
 439.2	20911
 439.7	20914
 440.2	20866
 440.8	20898
 441.3	20909
 441.8	20914
 442.4	20884
 442.9	20913
 443.5	20947
 444.0	20945
 444.5	20972
 445.1	20906
 445.6	20953
 446.1	20996
 446.7	21027
 447.2	21071
 447.7	21086
 448.3	21179
 448.8	21181
 449.3	21250
 449.9	21246
 450.4	21392
 450.9	21471
 451.5	21522
 452.0	21539
 452.6	21615
 453.1	21713
 453.6	21768
 454.2	21713
 454.7	21824
 455.2	21891
 455.8	21965
 456.3	21933
 456.8	22085
 457.4	22046
 457.9	22068
 458.5	22137
 459.0	22105
 459.5	22149
 460.1	22113
 460.6	22156
 461.1	22156
 461.7	22203
 462.2	22161
 462.7	22199
 463.3	22143
 463.8	22207
 464.4	22285
 464.9	22241
 465.4	22318
 466.0	22253
 466.5	22335
 467.0	22297
 467.6	22387
 468.1	22503
 468.7	22465
 469.2	22433
 469.7	22557
 470.3	22581
 470.8	22643
 471.3	22665
 471.9	22665
 472.4	22750
 473.0	22821
 473.5	22871
 474.0	22903
 474.6	22943
 475.1	22973
 475.6	23069
 476.2	23107
 476.7	23108
 477.3	23185
 477.8	23167
 478.3	23128
 478.9	23339
 479.4	23261
 479.9	23313
 480.5	23331
 481.0	23389
 481.6	23435
 482.1	23535
 482.6	23553
 483.2	23599
 483.7	23730
 484.2	23710
 484.8	23605
 485.3	23722
 485.9	23825
 486.4	23817
 486.9	23879
 487.5	23867
 488.0	23911
 488.6	23988
 489.1	24035
 489.6	24105
 490.2	24119
 490.7	24111
 491.2	24092
 491.8	24163
 492.3	24135
 492.9	24190
 493.4	24206
 493.9	24225
 494.5	24231
 495.0	24284
 495.6	24209
 496.1	24216
 496.6	24266
 497.2	24188
 497.7	24159
 498.2	24234
 498.8	24242
 499.3	24171
 499.9	24236
 500.4	24234
 500.9	24243
 501.5	24260
 502.0	24361
 502.6	24372
 503.1	24493
 503.6	24503
 504.2	24510
 504.7	24574
 505.2	24691
 505.8	24731
 506.3	24883
 506.9	24963
 507.4	25006
 507.9	25059
 508.5	25166
 509.0	25287
 509.6	25421
 510.1	25463
 510.6	25562
 511.2	25647
 511.7	25705
 512.2	25821
 512.8	25904
 513.3	25925
 513.9	25953
 514.4	26044
 514.9	26146
 515.5	26065
 516.0	26151
 516.6	26111
 517.1	26161
 517.6	26128
 518.2	26087
 518.7	26011
 519.3	26039
 519.8	26032
 520.3	25996
 520.9	25929
 521.4	25901
 521.9	25922
 522.5	25815
 523.0	25801
 523.6	25818
 524.1	25671
 524.6	25703
 525.2	25721
 525.7	25771
 526.3	25715
 526.8	25817
 527.3	25788
 527.9	25842
 528.4	25858
 528.9	25947
 529.5	26003
 530.0	26037
 530.6	26134
 531.1	26197
 531.6	26188
 532.2	26356
 532.7	26392
 533.3	26506
 533.8	26691
 534.3	26806
 534.9	26871
 535.4	26911
 536.0	27049
 536.5	27161
 537.0	27202
 537.6	27292
 538.1	27405
 538.6	27486
 539.2	27487
 539.7	27562
 540.3	27697
 540.8	27706
 541.3	27705
 541.9	27771
 542.4	27792
 543.0	27875
 543.5	27844
 544.0	27831
 544.6	27865
 545.1	27891
 545.6	27912
 546.2	27895
 546.7	27800
 547.3	27863
 547.8	27827
 548.3	27859
 548.9	27768
 549.4	27757
 550.0	27717
 550.5	27771
 551.0	27801
 551.6	27754
 552.1	27756
 552.6	27759
 553.2	27718
 553.7	27702
 554.3	27733
 554.8	27804
 555.3	27678
 555.9	27749
 556.4	27740
 556.9	27857
 557.5	27905
 558.0	27886
 558.6	27895
 559.1	27975
 559.6	27987
 560.2	28033
 560.7	28067
 561.3	28075
 561.8	28081
 562.3	28223
 562.9	28236
 563.4	28298
 563.9	28315
 564.5	28355
 565.0	28365
 565.6	28399
 566.1	28421
 566.6	28432
 567.2	28434
 567.7	28539
 568.2	28483
 568.8	28497
 569.3	28488
 569.9	28555
 570.4	28542
 570.9	28534
 571.5	28539
 572.0	28551
 572.5	28614
 573.1	28586
 573.6	28654
 574.1	28663
 574.7	28689
 575.2	28688
 575.8	28756
 576.3	28858
 576.8	28844
 577.4	28891
 577.9	28944
 578.4	28948
 579.0	29002
 579.5	29135
 580.1	29099
 580.6	29162
 581.1	29274
 581.7	29336
 582.2	29331
 582.7	29402
 583.3	29474
 583.8	29479
 584.3	29473
 584.9	29559
 585.4	29592
 586.0	29599
 586.5	29661
 587.0	29667
 587.6	29754
 588.1	29733
 588.6	29809
 589.2	29782
 589.7	29805
 590.2	29799
 590.8	29781
 591.3	29805
 591.9	29742
 592.4	29785
 592.9	29707
 593.5	29681
 594.0	29646
 594.5	29637
 595.1	29575
 595.6	29517
 596.1	29542
 596.7	29481
 597.2	29475
 597.7	29388
 598.3	29377
 598.8	29323
 599.3	29295
 599.9	29233
 600.4	29203
 601.0	29183
 601.5	29156
 602.0	29128
 602.6	29077
 603.1	29091
 603.6	29103
 604.2	29181
 604.7	29113
 605.2	29186
 605.8	29126
 606.3	29167
 606.8	29249
 607.4	29267
 607.9	29331
 608.4	29311
 609.0	29383
 609.5	29442
 610.0	29457
 610.6	29579
 611.1	29550
 611.6	29626
 612.2	29669
 612.7	29770
 613.2	29807
 613.8	29802
 614.3	29895
 614.8	29975
 615.4	29986
 615.9	30131
 616.4	30256
 617.0	30268
 617.5	30401
 618.0	30495
 618.6	30517
 619.1	30634
 619.6	30767
 620.2	30870
 620.7	31018
 621.2	31060
 621.8	31163
 622.3	31257
 622.8	31303
 623.4	31387
 623.9	31487
 624.4	31515
 625.0	31544
 625.5	31562
 626.0	31586
 626.6	31649
 627.1	31624
 627.6	31578
 628.2	31549
 628.7	31591
 629.2	31567
 629.8	31565
 630.3	31535
 630.8	31505
 631.4	31431
 631.9	31406
 632.4	31260
 632.9	31215
 633.5	31163
 634.0	31086
 634.5	31077
 635.1	30973
 635.6	30916
 636.1	30844
 636.7	30814
 637.2	30766
 637.7	30628
 638.3	30675
 638.8	30623
 639.3	30601
 639.8	30506
 640.4	30489
 640.9	30474
 641.4	30377
 642.0	30325
 642.5	30328
 643.0	30289
 643.6	30357
 644.1	30305
 644.6	30318
 645.1	30331
 645.7	30329
 646.2	30286
 646.7	30316
 647.3	30347
 647.8	30373
 648.3	30359
 648.9	30415
 649.4	30360
 649.9	30442
 650.4	30485
 651.0	30558
 651.5	30595
 652.0	30675
 652.6	30668
 653.1	30780
 653.6	30733
 654.1	30821
 654.7	30833
 655.2	30951
 655.7	31021
 656.3	31065
 656.8	31061
 657.3	31149
 657.8	31142
 658.4	31181
 658.9	31232
 659.4	31322
 659.9	31359
 660.5	31357
 661.0	31406
 661.5	31467
 662.1	31447
 662.6	31481
 663.1	31460
 663.6	31548
 664.2	31513
 664.7	31497
 665.2	31443
 665.7	31543
 666.3	31502
 666.8	31505
 667.3	31502
 667.8	31469
 668.4	31480
 668.9	31485
 669.4	31437
 669.9	31446
 670.5	31378
 671.0	31381
 671.5	31327
 672.0	31353
 672.6	31333
 673.1	31354
 673.6	31255
 674.1	31261
 674.7	31239
 675.2	31267
 675.7	31133
 676.2	31106
 676.8	31157
 677.3	31147
 677.8	31062
 678.3	31137
 678.9	31057
 679.4	30989
 679.9	31033
 680.4	31013
 681.0	30970
 681.5	30984
 682.0	30927
 682.5	30956
 683.1	30862
 683.6	30866
 684.1	30806
 684.6	30887
 685.1	30836
 685.7	30834
 686.2	30811
 686.7	30773
 687.2	30755
 687.8	30814
 688.3	30753
 688.8	30766
 689.3	30713
 689.8	30744
 690.4	30726
 690.9	30746
 691.4	30767
 691.9	30769
 692.4	30748
 693.0	30813
 693.5	30781
 694.0	30771
 694.5	30763
 695.1	30753
 695.6	30715
 696.1	30777
 696.6	30767
 697.1	30793
 697.7	30818
 698.2	30753
 698.7	30777
 699.2	30741
 699.7	30741
 700.3	30698
 700.8	30669
 701.3	30746
 701.8	30704
 702.3	30639
 702.8	30641
 703.4	30617
 703.9	30590
 704.4	30550
 704.9	30505
 705.4	30495
 706.0	30541
 706.5	30505
 707.0	30409
 707.5	30379
 708.0	30379
 708.5	30311
 709.1	30349
 709.6	30301
 710.1	30236
 710.6	30201
 711.1	30172
 711.7	30163
 712.2	30136
 712.7	30132
 713.2	30085
 713.7	30081
 714.2	30025
 714.8	30092
 715.3	30032
 715.8	30021
 716.3	30015
 716.8	29953
 717.3	29935
 717.8	30020
 718.4	30035
 718.9	29974
 719.4	30053
 719.9	29973
 720.4	30014
 720.9	30032
 721.4	30026
 722.0	30051
 722.5	30051
 723.0	30061
 723.5	30074
 724.0	30044
 724.5	30039
 725.0	30079
 725.6	30026
 726.1	30089
 726.6	30186
 727.1	30133
 727.6	30177
 728.1	30206
 728.6	30170
 729.1	30167
 729.7	30158
 730.2	30183
 730.7	30213
 731.2	30245
 731.7	30230
 732.2	30250
 732.7	30223
 733.2	30263
 733.8	30237
 734.3	30263
 734.8	30263
 735.3	30297
 735.8	30303
 736.3	30303
 736.8	30343
 737.3	30411
 737.8	30364
 738.4	30378
 738.9	30340
 739.4	30433
 739.9	30414
 740.4	30443
 740.9	30421
 741.4	30426
 741.9	30415
 742.4	30429
 742.9	30418
 743.4	30469
 744.0	30379
 744.5	30359
 745.0	30357
 745.5	30412
 746.0	30372
 746.5	30375
 747.0	30306
 747.5	30270
 748.0	30233
 748.5	30239
 749.0	30225
 749.5	30283
 750.0	30116
 750.5	30129
 751.1	30101
 751.6	30079
 752.1	30031
 752.6	29980
 753.1	29993
 753.6	29911
 754.1	29853
 754.6	29858
 755.1	29782
 755.6	29756
 756.1	29647
 756.6	29694
 757.1	29637
 757.6	29584
 758.1	29510
 758.6	29476
 759.1	29379
 759.6	29375
 760.1	29289
 760.7	29212
 761.2	29258
 761.7	29172
 762.2	29121
 762.7	29124
 763.2	28980
 763.7	29009
 764.2	28907
 764.7	28870
 765.2	28849
 765.7	28767
 766.2	28694
 766.7	28686
 767.2	28596
 767.7	28548
 768.2	28489
 768.7	28417
 769.2	28367
 769.7	28371
 770.2	28311
 770.7	28283
 771.2	28225
 771.7	28183
 772.2	28166
 772.7	28174
 773.2	28131
 773.7	28057
 774.2	27989
 774.7	28005
 775.2	27963
 775.7	27926
 776.2	27890
 776.7	27904
 777.2	27819
 777.7	27861
 778.2	27822
 778.7	27851
 779.2	27837
 779.7	27847
 780.2	27687
 780.7	27742
 781.2	27729
 781.7	27765
 782.2	27685
 782.6	27731
 783.1	27720
 783.6	27679
 784.1	27630
 784.6	27621
 785.1	27617
 785.6	27612
 786.1	27619
 786.6	27624
 787.1	27563
 787.6	27538
 788.1	27515
 788.6	27504
 789.1	27469
 789.6	27479
 790.1	27470
 790.6	27452
 791.1	27347
 791.6	27326
 792.0	27313
 792.5	27319
 793.0	27268
 793.5	27234
 794.0	27154
 794.5	27199
 795.0	27137
 795.5	27102
 796.0	27069
 796.5	26988
 797.0	26972
 797.5	26966
 798.0	26794
 798.4	26789
 798.9	26732
 799.4	26703
 799.9	26657
 800.4	26494
 800.9	26541
 801.4	26540
 801.9	26449
 802.4	26327
 802.9	26337
 803.3	26278
 803.8	26197
 804.3	26106
 804.8	26109
 805.3	26021
 805.8	25943
 806.3	25891
 806.8	25821
 807.2	25758
 807.7	25687
 808.2	25662
 808.7	25547
 809.2	25503
 809.7	25395
 810.2	25414
 810.7	25303
 811.1	25263
 811.6	25220
 812.1	25131
 812.6	25049
 813.1	25058
 813.6	25021
 814.1	24974
 814.5	24897
 815.0	24870
 815.5	24786
 816.0	24720
 816.5	24730
 817.0	24656
 817.4	24601
 817.9	24599
 818.4	24495
 818.9	24537
 819.4	24463
 819.9	24413
 820.3	24360
 820.8	24332
 821.3	24294
 821.8	24267
 822.3	24200
 822.7	24153
 823.2	24187
 823.7	24121
 824.2	24102
 824.7	24051
 825.2	24036
 825.6	23996
 826.1	23962
 826.6	23988
 827.1	23955
 827.6	23929
 828.0	23862
 828.5	23808
 829.0	23831
 829.5	23759
 829.9	23743
 830.4	23775
 830.9	23742
 831.4	23747
 831.9	23689
 832.3	23743
 832.8	23675
 833.3	23659
 833.8	23723
 834.2	23699
 834.7	23544
 835.2	23615
 835.7	23604
 836.1	23582
 836.6	23551
 837.1	23543
 837.6	23539
 838.0	23551
 838.5	23553
 839.0	23553
 839.5	23534
 839.9	23446
 840.4	23443
 840.9	23398
 841.4	23421
 841.8	23426
 842.3	23427
 842.8	23437
 843.3	23411
 843.7	23308
 844.2	23285
 844.7	23351
 845.1	23313
 845.6	23225
 846.1	23230
 846.6	23260
 847.0	23148
 847.5	23179
 848.0	23145
 848.4	23166
 848.9	23115
 849.4	23079
 849.8	23075
 850.3	23065
 850.8	23088
 851.3	23034
 851.7	23010
 852.2	22995
 852.7	22975
 853.1	22940
 853.6	22866
 854.1	22892
 854.5	22840
 855.0	22807
 855.5	22783
 855.9	22821
 856.4	22787
 856.9	22687
 857.3	22713
 857.8	22659
 858.3	22672
 858.7	22603
 859.2	22613
 859.7	22606
 860.1	22651
 860.6	22606
 861.1	22529
 861.5	22550
 862.0	22531
 862.4	22483
 862.9	22431
 863.4	22457
 863.8	22445
 864.3	22420
 864.8	22321
 865.2	22352
 865.7	22348
 866.1	22350
 866.6	22249
 867.1	22303
 867.5	22271
 868.0	22237
 868.5	22161
 868.9	22143
 869.4	22211
 869.8	22152
 870.3	22096
 870.8	22140
 871.2	22084
 871.7	22061
 872.1	21988
 872.6	22025
 873.0	21981
 873.5	22046
 874.0	22017
 874.4	21894
 874.9	21912
 875.3	21852
 875.8	21738
 876.2	21519
 876.7	21341
 877.2	20979
 877.6	20522
 878.1	20059
