#xlabel Wavelength (nm)
#ylabel Spectrometer Array Counts
#title Exposure time is 9300 ms
## lambda	counts
 349.8	16663
 350.3	16900
 350.8	17135
 351.3	17308
 351.9	17407
 352.4	17518
 352.9	17603
 353.4	17577
 354.0	17586
 354.5	17636
 355.0	17645
 355.5	17663
 356.0	17626
 356.6	17598
 357.1	17643
 357.6	17622
 358.1	17651
 358.7	17587
 359.2	17603
 359.7	17615
 360.2	17648
 360.8	17610
 361.3	17700
 361.8	17645
 362.3	17667
 362.9	17631
 363.4	17694
 363.9	17695
 364.4	17718
 364.9	17632
 365.5	17697
 366.0	17680
 366.5	17638
 367.0	17681
 367.6	17703
 368.1	17695
 368.6	17633
 369.1	17686
 369.7	17731
 370.2	17656
 370.7	17649
 371.2	17691
 371.8	17742
 372.3	17661
 372.8	17727
 373.3	17742
 373.9	17687
 374.4	17699
 374.9	17745
 375.5	17640
 376.0	17760
 376.5	17722
 377.0	17735
 377.6	17677
 378.1	17753
 378.6	17686
 379.1	17691
 379.7	17674
 380.2	17735
 380.7	17737
 381.2	17690
 381.8	17677
 382.3	17717
 382.8	17695
 383.4	17738
 383.9	17691
 384.4	17826
 384.9	17745
 385.5	17760
 386.0	17757
 386.5	17822
 387.1	17753
 387.6	17766
 388.1	17773
 388.6	17782
 389.2	17767
 389.7	17790
 390.2	17759
 390.8	17841
 391.3	17801
 391.8	17797
 392.3	17779
 392.9	17770
 393.4	17758
 393.9	17827
 394.5	17825
 395.0	17766
 395.5	17788
 396.0	17782
 396.6	17754
 397.1	17837
 397.6	17826
 398.2	17827
 398.7	17827
 399.2	17911
 399.8	17790
 400.3	17847
 400.8	17887
 401.3	17865
 401.9	17877
 402.4	17890
 402.9	17873
 403.5	17894
 404.0	17882
 404.5	17832
 405.1	17828
 405.6	17917
 406.1	17885
 406.7	17891
 407.2	17887
 407.7	17968
 408.2	17953
 408.8	17951
 409.3	17981
 409.8	18017
 410.4	17976
 410.9	17974
 411.4	17927
 412.0	17976
 412.5	18019
 413.0	17975
 413.6	18008
 414.1	17971
 414.6	17996
 415.2	18035
 415.7	17972
 416.2	18013
 416.8	17994
 417.3	17975
 417.8	17990
 418.4	18074
 418.9	18009
 419.4	18133
 420.0	18022
 420.5	18079
 421.0	18025
 421.5	18097
 422.1	18077
 422.6	18119
 423.1	18136
 423.7	18110
 424.2	18093
 424.7	18130
 425.3	18096
 425.8	18114
 426.3	18101
 426.9	18157
 427.4	18091
 427.9	18199
 428.5	18140
 429.0	18170
 429.6	18127
 430.1	18202
 430.6	18193
 431.2	18129
 431.7	18215
 432.2	18178
 432.8	18155
 433.3	18252
 433.8	18249
 434.4	18218
 434.9	18229
 435.4	18266
 436.0	18239
 436.5	18234
 437.0	18297
 437.6	18269
 438.1	18312
 438.6	18314
 439.2	18341
 439.7	18331
 440.2	18275
 440.8	18303
 441.3	18303
 441.8	18306
 442.4	18269
 442.9	18304
 443.5	18332
 444.0	18319
 444.5	18347
 445.1	18265
 445.6	18303
 446.1	18310
 446.7	18325
 447.2	18342
 447.7	18327
 448.3	18387
 448.8	18343
 449.3	18373
 449.9	18316
 450.4	18405
 450.9	18445
 451.5	18431
 452.0	18399
 452.6	18422
 453.1	18459
 453.6	18471
 454.2	18361
 454.7	18427
 455.2	18442
 455.8	18482
 456.3	18425
 456.8	18545
 457.4	18467
 457.9	18478
 458.5	18521
 459.0	18478
 459.5	18517
 460.1	18474
 460.6	18510
 461.1	18498
 461.7	18543
 462.2	18498
 462.7	18535
 463.3	18464
 463.8	18533
 464.4	18593
 464.9	18537
 465.4	18597
 466.0	18497
 466.5	18565
 467.0	18500
 467.6	18568
 468.1	18648
 468.7	18570
 469.2	18509
 469.7	18587
 470.3	18575
 470.8	18601
 471.3	18582
 471.9	18534
 472.4	18582
 473.0	18623
 473.5	18629
 474.0	18622
 474.6	18627
 475.1	18619
 475.6	18679
 476.2	18694
 476.7	18669
 477.3	18727
 477.8	18663
 478.3	18599
 478.9	18783
 479.4	18671
 479.9	18683
 480.5	18671
 481.0	18689
 481.6	18713
 482.1	18759
 482.6	18750
 483.2	18751
 483.7	18853
 484.2	18789
 484.8	18640
 485.3	18729
 485.9	18799
 486.4	18758
 486.9	18776
 487.5	18737
 488.0	18746
 488.6	18798
 489.1	18807
 489.6	18854
 490.2	18845
 490.7	18808
 491.2	18779
 491.8	18831
 492.3	18783
 492.9	18824
 493.4	18843
 493.9	18847
 494.5	18850
 495.0	18921
 495.6	18837
 496.1	18850
 496.6	18905
 497.2	18824
 497.7	18785
 498.2	18874
 498.8	18893
 499.3	18813
 499.9	18873
 500.4	18866
 500.9	18850
 501.5	18835
 502.0	18897
 502.6	18877
 503.1	18955
 503.6	18927
 504.2	18879
 504.7	18882
 505.2	18942
 505.8	18937
 506.3	19001
 506.9	19010
 507.4	18982
 507.9	18951
 508.5	18984
 509.0	19027
 509.6	19083
 510.1	19049
 510.6	19084
 511.2	19115
 511.7	19089
 512.2	19152
 512.8	19167
 513.3	19130
 513.9	19123
 514.4	19175
 514.9	19243
 515.5	19149
 516.0	19221
 516.6	19198
 517.1	19241
 517.6	19219
 518.2	19201
 518.7	19144
 519.3	19193
 519.8	19235
 520.3	19230
 520.9	19177
 521.4	19184
 521.9	19239
 522.5	19167
 523.0	19190
 523.6	19226
 524.1	19083
 524.6	19133
 525.2	19154
 525.7	19187
 526.3	19104
 526.8	19193
 527.3	19147
 527.9	19170
 528.4	19153
 528.9	19204
 529.5	19223
 530.0	19207
 530.6	19253
 531.1	19253
 531.6	19175
 532.2	19289
 532.7	19246
 533.3	19283
 533.8	19400
 534.3	19427
 534.9	19427
 535.4	19369
 536.0	19443
 536.5	19483
 537.0	19441
 537.6	19473
 538.1	19520
 538.6	19541
 539.2	19480
 539.7	19492
 540.3	19593
 540.8	19549
 541.3	19515
 541.9	19545
 542.4	19547
 543.0	19609
 543.5	19569
 544.0	19543
 544.6	19596
 545.1	19603
 545.6	19635
 546.2	19613
 546.7	19531
 547.3	19591
 547.8	19568
 548.3	19617
 548.9	19533
 549.4	19539
 550.0	19505
 550.5	19566
 551.0	19611
 551.6	19559
 552.1	19578
 552.6	19569
 553.2	19555
 553.7	19532
 554.3	19569
 554.8	19634
 555.3	19501
 555.9	19564
 556.4	19525
 556.9	19609
 557.5	19639
 558.0	19596
 558.6	19570
 559.1	19642
 559.6	19624
 560.2	19620
 560.7	19623
 561.3	19602
 561.8	19580
 562.3	19688
 562.9	19671
 563.4	19701
 563.9	19695
 564.5	19697
 565.0	19683
 565.6	19702
 566.1	19699
 566.6	19707
 567.2	19692
 567.7	19796
 568.2	19703
 568.8	19719
 569.3	19682
 569.9	19754
 570.4	19745
 570.9	19715
 571.5	19711
 572.0	19701
 572.5	19755
 573.1	19703
 573.6	19749
 574.1	19739
 574.7	19741
 575.2	19711
 575.8	19745
 576.3	19819
 576.8	19783
 577.4	19791
 577.9	19809
 578.4	19765
 579.0	19779
 579.5	19870
 580.1	19799
 580.6	19804
 581.1	19879
 581.7	19894
 582.2	19828
 582.7	19874
 583.3	19922
 583.8	19883
 584.3	19841
 584.9	19892
 585.4	19903
 586.0	19871
 586.5	19910
 587.0	19864
 587.6	19933
 588.1	19882
 588.6	19958
 589.2	19907
 589.7	19919
 590.2	19903
 590.8	19899
 591.3	19922
 591.9	19874
 592.4	19931
 592.9	19873
 593.5	19862
 594.0	19855
 594.5	19864
 595.1	19850
 595.6	19830
 596.1	19887
 596.7	19850
 597.2	19884
 597.7	19825
 598.3	19833
 598.8	19812
 599.3	19815
 599.9	19798
 600.4	19797
 601.0	19798
 601.5	19783
 602.0	19769
 602.6	19729
 603.1	19740
 603.6	19741
 604.2	19835
 604.7	19746
 605.2	19809
 605.8	19728
 606.3	19753
 606.8	19825
 607.4	19789
 607.9	19826
 608.4	19781
 609.0	19812
 609.5	19851
 610.0	19822
 610.6	19909
 611.1	19837
 611.6	19853
 612.2	19853
 612.7	19919
 613.2	19901
 613.8	19833
 614.3	19868
 614.8	19921
 615.4	19845
 615.9	19927
 616.4	19979
 617.0	19934
 617.5	20021
 618.0	20031
 618.6	19957
 619.1	19994
 619.6	20062
 620.2	20056
 620.7	20107
 621.2	20072
 621.8	20112
 622.3	20138
 622.8	20094
 623.4	20127
 623.9	20181
 624.4	20158
 625.0	20151
 625.5	20161
 626.0	20167
 626.6	20214
 627.1	20205
 627.6	20153
 628.2	20127
 628.7	20164
 629.2	20141
 629.8	20170
 630.3	20178
 630.8	20162
 631.4	20143
 631.9	20171
 632.4	20065
 632.9	20084
 633.5	20079
 634.0	20047
 634.5	20126
 635.1	20054
 635.6	20029
 636.1	20017
 636.7	20069
 637.2	20059
 637.7	19982
 638.3	20067
 638.8	20066
 639.3	20069
 639.8	20028
 640.4	20041
 640.9	20059
 641.4	19974
 642.0	19966
 642.5	19987
 643.0	19955
 643.6	20034
 644.1	19997
 644.6	20008
 645.1	20045
 645.7	20015
 646.2	19985
 646.7	19999
 647.3	20030
 647.8	20032
 648.3	20012
 648.9	20044
 649.4	19966
 649.9	20031
 650.4	20035
 651.0	20076
 651.5	20087
 652.0	20135
 652.6	20077
 653.1	20155
 653.6	20069
 654.1	20144
 654.7	20097
 655.2	20173
 655.7	20210
 656.3	20216
 656.8	20159
 657.3	20217
 657.8	20169
 658.4	20156
 658.9	20159
 659.4	20244
 659.9	20239
 660.5	20209
 661.0	20251
 661.5	20291
 662.1	20250
 662.6	20265
 663.1	20230
 663.6	20302
 664.2	20269
 664.7	20238
 665.2	20165
 665.7	20279
 666.3	20250
 666.8	20253
 667.3	20259
 667.8	20222
 668.4	20255
 668.9	20261
 669.4	20233
 669.9	20273
 670.5	20211
 671.0	20230
 671.5	20183
 672.0	20236
 672.6	20246
 673.1	20268
 673.6	20183
 674.1	20217
 674.7	20207
 675.2	20259
 675.7	20123
 676.2	20139
 676.8	20189
 677.3	20207
 677.8	20138
 678.3	20250
 678.9	20180
 679.4	20131
 679.9	20190
 680.4	20197
 681.0	20165
 681.5	20195
 682.0	20173
 682.5	20198
 683.1	20119
 683.6	20165
 684.1	20107
 684.6	20205
 685.1	20143
 685.7	20174
 686.2	20134
 686.7	20113
 687.2	20097
 687.8	20164
 688.3	20105
 688.8	20136
 689.3	20078
 689.8	20109
 690.4	20103
 690.9	20116
 691.4	20111
 691.9	20141
 692.4	20091
 693.0	20165
 693.5	20132
 694.0	20113
 694.5	20109
 695.1	20087
 695.6	20058
 696.1	20126
 696.6	20107
 697.1	20119
 697.7	20149
 698.2	20083
 698.7	20109
 699.2	20069
 699.7	20075
 700.3	20056
 700.8	20035
 701.3	20149
 701.8	20103
 702.3	20055
 702.8	20058
 703.4	20028
 703.9	20039
 704.4	20047
 704.9	20005
 705.4	20017
 706.0	20109
 706.5	20097
 707.0	20015
 707.5	20005
 708.0	20033
 708.5	19993
 709.1	20059
 709.6	20020
 710.1	19998
 710.6	19973
 711.1	19978
 711.7	20000
 712.2	20004
 712.7	20006
 713.2	19993
 713.7	20002
 714.2	19960
 714.8	20033
 715.3	19983
 715.8	19993
 716.3	20002
 716.8	19919
 717.3	19906
 717.8	20011
 718.4	20031
 718.9	19962
 719.4	20037
 719.9	19954
 720.4	20003
 720.9	20004
 721.4	19998
 722.0	20017
 722.5	20007
 723.0	19995
 723.5	20000
 724.0	19965
 724.5	19963
 725.0	19977
 725.6	19912
 726.1	19961
 726.6	20074
 727.1	20015
 727.6	20047
 728.1	20066
 728.6	20027
 729.1	20011
 729.7	20001
 730.2	20024
 730.7	20061
 731.2	20090
 731.7	20071
 732.2	20077
 732.7	20060
 733.2	20100
 733.8	20085
 734.3	20098
 734.8	20070
 735.3	20086
 735.8	20069
 736.3	20042
 736.8	20070
 737.3	20113
 737.8	20063
 738.4	20057
 738.9	20014
 739.4	20094
 739.9	20079
 740.4	20079
 740.9	20079
 741.4	20070
 741.9	20069
 742.4	20079
 742.9	20073
 743.4	20153
 744.0	20071
 744.5	20072
 745.0	20088
 745.5	20159
 746.0	20130
 746.5	20139
 747.0	20086
 747.5	20073
 748.0	20045
 748.5	20066
 749.0	20077
 749.5	20162
 750.0	20007
 750.5	20067
 751.1	20076
 751.6	20073
 752.1	20063
 752.6	20034
 753.1	20060
 753.6	20008
 754.1	19981
 754.6	20027
 755.1	19982
 755.6	19993
 756.1	19921
 756.6	20011
 757.1	19978
 757.6	19966
 758.1	19936
 758.6	19955
 759.1	19891
 759.6	19920
 760.1	19872
 760.7	19849
 761.2	19923
 761.7	19867
 762.2	19851
 762.7	19908
 763.2	19765
 763.7	19853
 764.2	19790
 764.7	19799
 765.2	19829
 765.7	19802
 766.2	19763
 766.7	19806
 767.2	19759
 767.7	19775
 768.2	19753
 768.7	19725
 769.2	19721
 769.7	19765
 770.2	19732
 770.7	19739
 771.2	19720
 771.7	19698
 772.2	19709
 772.7	19753
 773.2	19734
 773.7	19695
 774.2	19636
 774.7	19688
 775.2	19689
 775.7	19659
 776.2	19653
 776.7	19683
 777.2	19612
 777.7	19680
 778.2	19662
 778.7	19706
 779.2	19717
 779.7	19739
 780.2	19596
 780.7	19662
 781.2	19679
 781.7	19734
 782.2	19659
 782.6	19727
 783.1	19737
 783.6	19703
 784.1	19673
 784.6	19663
 785.1	19673
 785.6	19664
 786.1	19697
 786.6	19715
 787.1	19657
 787.6	19657
 788.1	19652
 788.6	19646
 789.1	19645
 789.6	19682
 790.1	19695
 790.6	19698
 791.1	19605
 791.6	19608
 792.0	19631
 792.5	19670
 793.0	19653
 793.5	19647
 794.0	19583
 794.5	19671
 795.0	19661
 795.5	19634
 796.0	19651
 796.5	19597
 797.0	19626
 797.5	19665
 798.0	19527
 798.4	19572
 798.9	19555
 799.4	19582
 799.9	19585
 800.4	19460
 800.9	19550
 801.4	19613
 801.9	19572
 802.4	19519
 802.9	19577
 803.3	19572
 803.8	19536
 804.3	19491
 804.8	19553
 805.3	19505
 805.8	19495
 806.3	19497
 806.8	19481
 807.2	19471
 807.7	19446
 808.2	19484
 808.7	19407
 809.2	19413
 809.7	19353
 810.2	19417
 810.7	19365
 811.1	19375
 811.6	19378
 812.1	19340
 812.6	19298
 813.1	19347
 813.6	19361
 814.1	19340
 814.5	19303
 815.0	19323
 815.5	19291
 816.0	19247
 816.5	19313
 817.0	19267
 817.4	19249
 817.9	19278
 818.4	19226
 818.9	19299
 819.4	19256
 819.9	19237
 820.3	19209
 820.8	19214
 821.3	19211
 821.8	19215
 822.3	19182
 822.7	19162
 823.2	19222
 823.7	19173
 824.2	19173
 824.7	19157
 825.2	19175
 825.6	19153
 826.1	19149
 826.6	19199
 827.1	19186
 827.6	19183
 828.0	19124
 828.5	19091
 829.0	19134
 829.5	19079
 829.9	19085
 830.4	19133
 830.9	19127
 831.4	19147
 831.9	19110
 832.3	19189
 832.8	19136
 833.3	19129
 833.8	19210
 834.2	19194
 834.7	19055
 835.2	19145
 835.7	19146
 836.1	19135
 836.6	19118
 837.1	19127
 837.6	19140
 838.0	19170
 838.5	19193
 839.0	19191
 839.5	19183
 839.9	19108
 840.4	19113
 840.9	19080
 841.4	19123
 841.8	19137
 842.3	19151
 842.8	19179
 843.3	19164
 843.7	19076
 844.2	19069
 844.7	19153
 845.1	19122
 845.6	19047
 846.1	19071
 846.6	19103
 847.0	19009
 847.5	19051
 848.0	19038
 848.4	19077
 848.9	19051
 849.4	19037
 849.8	19058
 850.3	19047
 850.8	19092
 851.3	19055
 851.7	19058
 852.2	19068
 852.7	19056
 853.1	19035
 853.6	18985
 854.1	19027
 854.5	18997
 855.0	18985
 855.5	18980
 855.9	19042
 856.4	19036
 856.9	18942
 857.3	19004
 857.8	18977
 858.3	19022
 858.7	18974
 859.2	18987
 859.7	18989
 860.1	19039
 860.6	19023
 861.1	18966
 861.5	19005
 862.0	19017
 862.4	18984
 862.9	18947
 863.4	18995
 863.8	19002
 864.3	18999
 864.8	18914
 865.2	18969
 865.7	18994
 866.1	19002
 866.6	18927
 867.1	18999
 867.5	18983
 868.0	18968
 868.5	18915
 868.9	18933
 869.4	19031
 869.8	18986
 870.3	18947
 870.8	19011
 871.2	18959
 871.7	18959
 872.1	18910
 872.6	18951
 873.0	18927
 873.5	18999
 874.0	18980
 874.4	18866
 874.9	18898
 875.3	18848
 875.8	18764
 876.2	18570
 876.7	18446
 877.2	18150
 877.6	17782
 878.1	17444
