#xlabel Wavelength (nm)
#ylabel Spectrometer Array Counts
#title Exposure time is 9300 ms
## lambda	counts
 349.8	16833
 350.3	17081
 350.8	17317
 351.3	17498
 351.9	17600
 352.4	17717
 352.9	17798
 353.4	17769
 354.0	17787
 354.5	17833
 355.0	17839
 355.5	17861
 356.0	17820
 356.6	17799
 357.1	17842
 357.6	17826
 358.1	17858
 358.7	17799
 359.2	17821
 359.7	17837
 360.2	17873
 360.8	17848
 361.3	17946
 361.8	17891
 362.3	17925
 362.9	17887
 363.4	17965
 363.9	17967
 364.4	17992
 364.9	17913
 365.5	17982
 366.0	17971
 366.5	17932
 367.0	17977
 367.6	18004
 368.1	18009
 368.6	17949
 369.1	18004
 369.7	18061
 370.2	17989
 370.7	17993
 371.2	18045
 371.8	18099
 372.3	18026
 372.8	18101
 373.3	18123
 373.9	18081
 374.4	18100
 374.9	18153
 375.5	18058
 376.0	18185
 376.5	18155
 377.0	18184
 377.6	18132
 378.1	18214
 378.6	18168
 379.1	18179
 379.7	18175
 380.2	18249
 380.7	18262
 381.2	18224
 381.8	18219
 382.3	18269
 382.8	18254
 383.4	18305
 383.9	18269
 384.4	18413
 384.9	18335
 385.5	18360
 386.0	18363
 386.5	18443
 387.1	18380
 387.6	18393
 388.1	18415
 388.6	18435
 389.2	18426
 389.7	18470
 390.2	18455
 390.8	18555
 391.3	18532
 391.8	18547
 392.3	18551
 392.9	18561
 393.4	18568
 393.9	18653
 394.5	18668
 395.0	18633
 395.5	18671
 396.0	18679
 396.6	18663
 397.1	18758
 397.6	18768
 398.2	18773
 398.7	18781
 399.2	18876
 399.8	18761
 400.3	18830
 400.8	18874
 401.3	18863
 401.9	18888
 402.4	18907
 402.9	18905
 403.5	18947
 404.0	18947
 404.5	18912
 405.1	18939
 405.6	19047
 406.1	19031
 406.7	19063
 407.2	19082
 407.7	19186
 408.2	19192
 408.8	19218
 409.3	19260
 409.8	19319
 410.4	19306
 410.9	19319
 411.4	19297
 412.0	19367
 412.5	19431
 413.0	19401
 413.6	19458
 414.1	19431
 414.6	19476
 415.2	19530
 415.7	19488
 416.2	19551
 416.8	19551
 417.3	19551
 417.8	19588
 418.4	19687
 418.9	19642
 419.4	19783
 420.0	19689
 420.5	19764
 421.0	19726
 421.5	19819
 422.1	19815
 422.6	19878
 423.1	19907
 423.7	19897
 424.2	19891
 424.7	19945
 425.3	19926
 425.8	19959
 426.3	19961
 426.9	20033
 427.4	19981
 427.9	20105
 428.5	20067
 429.0	20123
 429.6	20105
 430.1	20211
 430.6	20234
 431.2	20210
 431.7	20336
 432.2	20336
 432.8	20353
 433.3	20486
 433.8	20526
 434.4	20531
 434.9	20579
 435.4	20658
 436.0	20665
 436.5	20685
 437.0	20777
 437.6	20770
 438.1	20836
 438.6	20854
 439.2	20893
 439.7	20890
 440.2	20849
 440.8	20883
 441.3	20890
 441.8	20895
 442.4	20865
 442.9	20895
 443.5	20933
 444.0	20928
 444.5	20959
 445.1	20891
 445.6	20939
 446.1	20977
 446.7	21015
 447.2	21053
 447.7	21060
 448.3	21163
 448.8	21163
 449.3	21231
 449.9	21231
 450.4	21377
 450.9	21451
 451.5	21502
 452.0	21526
 452.6	21598
 453.1	21700
 453.6	21753
 454.2	21695
 454.7	21809
 455.2	21867
 455.8	21948
 456.3	21924
 456.8	22066
 457.4	22026
 457.9	22053
 458.5	22111
 459.0	22081
 459.5	22137
 460.1	22103
 460.6	22147
 461.1	22135
 461.7	22181
 462.2	22150
 462.7	22182
 463.3	22124
 463.8	22196
 464.4	22268
 464.9	22228
 465.4	22301
 466.0	22235
 466.5	22317
 467.0	22279
 467.6	22376
 468.1	22483
 468.7	22447
 469.2	22414
 469.7	22542
 470.3	22564
 470.8	22631
 471.3	22650
 471.9	22651
 472.4	22727
 473.0	22804
 473.5	22860
 474.0	22885
 474.6	22918
 475.1	22954
 475.6	23053
 476.2	23090
 476.7	23097
 477.3	23175
 477.8	23151
 478.3	23111
 478.9	23329
 479.4	23255
 479.9	23299
 480.5	23313
 481.0	23371
 481.6	23427
 482.1	23523
 482.6	23533
 483.2	23583
 483.7	23722
 484.2	23701
 484.8	23599
 485.3	23714
 485.9	23812
 486.4	23807
 486.9	23867
 487.5	23856
 488.0	23895
 488.6	23981
 489.1	24019
 489.6	24095
 490.2	24110
 490.7	24100
 491.2	24077
 491.8	24153
 492.3	24121
 492.9	24173
 493.4	24188
 493.9	24215
 494.5	24214
 495.0	24269
 495.6	24198
 496.1	24204
 496.6	24249
 497.2	24177
 497.7	24143
 498.2	24218
 498.8	24223
 499.3	24153
 499.9	24219
 500.4	24226
 500.9	24229
 501.5	24243
 502.0	24351
 502.6	24359
 503.1	24482
 503.6	24492
 504.2	24500
 504.7	24563
 505.2	24673
 505.8	24724
 506.3	24873
 506.9	24952
 507.4	24992
 507.9	25043
 508.5	25154
 509.0	25277
 509.6	25415
 510.1	25451
 510.6	25551
 511.2	25641
 511.7	25695
 512.2	25814
 512.8	25893
 513.3	25915
 513.9	25943
 514.4	26036
 514.9	26138
 515.5	26063
 516.0	26141
 516.6	26105
 517.1	26149
 517.6	26113
 518.2	26081
 518.7	25999
 519.3	26023
 519.8	26022
 520.3	25985
 520.9	25920
 521.4	25895
 521.9	25911
 522.5	25808
 523.0	25793
 523.6	25809
 524.1	25655
 524.6	25702
 525.2	25713
 525.7	25759
 526.3	25707
 526.8	25809
 527.3	25780
 527.9	25835
 528.4	25849
 528.9	25941
 529.5	25995
 530.0	26031
 530.6	26130
 531.1	26194
 531.6	26179
 532.2	26347
 532.7	26386
 533.3	26498
 533.8	26684
 534.3	26793
 534.9	26871
 535.4	26905
 536.0	27039
 536.5	27152
 537.0	27195
 537.6	27288
 538.1	27399
 538.6	27483
 539.2	27479
 539.7	27560
 540.3	27699
 540.8	27701
 541.3	27699
 541.9	27767
 542.4	27789
 543.0	27870
 543.5	27841
 544.0	27828
 544.6	27867
 545.1	27881
 545.6	27906
 546.2	27896
 546.7	27809
 547.3	27857
 547.8	27829
 548.3	27859
 548.9	27764
 549.4	27759
 550.0	27721
 550.5	27773
 551.0	27795
 551.6	27750
 552.1	27754
 552.6	27760
 553.2	27716
 553.7	27703
 554.3	27730
 554.8	27809
 555.3	27675
 555.9	27752
 556.4	27743
 556.9	27857
 557.5	27899
 558.0	27884
 558.6	27895
 559.1	27978
 559.6	27993
 560.2	28038
 560.7	28069
 561.3	28074
 561.8	28081
 562.3	28223
 562.9	28238
 563.4	28305
 563.9	28318
 564.5	28355
 565.0	28361
 565.6	28396
 566.1	28417
 566.6	28435
 567.2	28431
 567.7	28539
 568.2	28487
 568.8	28501
 569.3	28487
 569.9	28554
 570.4	28544
 570.9	28540
 571.5	28541
 572.0	28555
 572.5	28620
 573.1	28588
 573.6	28657
 574.1	28661
 574.7	28691
 575.2	28687
 575.8	28751
 576.3	28856
 576.8	28845
 577.4	28892
 577.9	28943
 578.4	28956
 579.0	28999
 579.5	29131
 580.1	29105
 580.6	29165
 581.1	29285
 581.7	29339
 582.2	29323
 582.7	29404
 583.3	29474
 583.8	29487
 584.3	29476
 584.9	29559
 585.4	29592
 586.0	29607
 586.5	29665
 587.0	29666
 587.6	29758
 588.1	29733
 588.6	29810
 589.2	29779
 589.7	29809
 590.2	29807
 590.8	29787
 591.3	29811
 591.9	29756
 592.4	29795
 592.9	29714
 593.5	29678
 594.0	29652
 594.5	29636
 595.1	29578
 595.6	29518
 596.1	29541
 596.7	29479
 597.2	29481
 597.7	29391
 598.3	29376
 598.8	29327
 599.3	29297
 599.9	29237
 600.4	29205
 601.0	29188
 601.5	29158
 602.0	29127
 602.6	29080
 603.1	29096
 603.6	29103
 604.2	29183
 604.7	29115
 605.2	29188
 605.8	29121
 606.3	29169
 606.8	29254
 607.4	29269
 607.9	29333
 608.4	29311
 609.0	29380
 609.5	29451
 610.0	29462
 610.6	29581
 611.1	29555
 611.6	29639
 612.2	29675
 612.7	29771
 613.2	29814
 613.8	29805
 614.3	29899
 614.8	29979
 615.4	29993
 615.9	30140
 616.4	30257
 617.0	30274
 617.5	30405
 618.0	30503
 618.6	30525
 619.1	30638
 619.6	30769
 620.2	30871
 620.7	31013
 621.2	31066
 621.8	31167
 622.3	31269
 622.8	31313
 623.4	31396
 623.9	31495
 624.4	31527
 625.0	31551
 625.5	31565
 626.0	31590
 626.6	31655
 627.1	31634
 627.6	31586
 628.2	31556
 628.7	31599
 629.2	31571
 629.8	31574
 630.3	31549
 630.8	31505
 631.4	31439
 631.9	31421
 632.4	31270
 632.9	31223
 633.5	31178
 634.0	31095
 634.5	31089
 635.1	30986
 635.6	30925
 636.1	30858
 636.7	30823
 637.2	30780
 637.7	30637
 638.3	30681
 638.8	30629
 639.3	30603
 639.8	30511
 640.4	30495
 640.9	30486
 641.4	30383
 642.0	30331
 642.5	30327
 643.0	30293
 643.6	30361
 644.1	30308
 644.6	30321
 645.1	30332
 645.7	30331
 646.2	30287
 646.7	30319
 647.3	30351
 647.8	30372
 648.3	30355
 648.9	30419
 649.4	30361
 649.9	30443
 650.4	30482
 651.0	30557
 651.5	30594
 652.0	30671
 652.6	30664
 653.1	30773
 653.6	30740
 654.1	30825
 654.7	30831
 655.2	30949
 655.7	31015
 656.3	31059
 656.8	31057
 657.3	31149
 657.8	31139
 658.4	31182
 658.9	31227
 659.4	31319
 659.9	31350
 660.5	31343
 661.0	31403
 661.5	31462
 662.1	31448
 662.6	31481
 663.1	31457
 663.6	31548
 664.2	31507
 664.7	31491
 665.2	31433
 665.7	31537
 666.3	31499
 666.8	31490
 667.3	31494
 667.8	31461
 668.4	31469
 668.9	31466
 669.4	31426
 669.9	31435
 670.5	31361
 671.0	31370
 671.5	31319
 672.0	31338
 672.6	31321
 673.1	31338
 673.6	31236
 674.1	31243
 674.7	31225
 675.2	31251
 675.7	31118
 676.2	31094
 676.8	31139
 677.3	31126
 677.8	31046
 678.3	31122
 678.9	31045
 679.4	30969
 679.9	31017
 680.4	30996
 681.0	30951
 681.5	30971
 682.0	30913
 682.5	30935
 683.1	30834
 683.6	30854
 684.1	30783
 684.6	30869
 685.1	30814
 685.7	30817
 686.2	30789
 686.7	30751
 687.2	30735
 687.8	30784
 688.3	30730
 688.8	30738
 689.3	30693
 689.8	30719
 690.4	30702
 690.9	30720
 691.4	30747
 691.9	30745
 692.4	30723
 693.0	30781
 693.5	30754
 694.0	30747
 694.5	30743
 695.1	30729
 695.6	30689
 696.1	30758
 696.6	30744
 697.1	30765
 697.7	30787
 698.2	30726
 698.7	30753
 699.2	30712
 699.7	30721
 700.3	30673
 700.8	30651
 701.3	30730
 701.8	30675
 702.3	30619
 702.8	30615
 703.4	30597
 703.9	30567
 704.4	30526
 704.9	30483
 705.4	30470
 706.0	30515
 706.5	30485
 707.0	30385
 707.5	30350
 708.0	30351
 708.5	30288
 709.1	30327
 709.6	30278
 710.1	30213
 710.6	30175
 711.1	30147
 711.7	30135
 712.2	30109
 712.7	30105
 713.2	30059
 713.7	30053
 714.2	29997
 714.8	30061
 715.3	30005
 715.8	29997
 716.3	29991
 716.8	29921
 717.3	29905
 717.8	29997
 718.4	30010
 718.9	29946
 719.4	30023
 719.9	29937
 720.4	29980
 720.9	30002
 721.4	29991
 722.0	30031
 722.5	30019
 723.0	30020
 723.5	30039
 724.0	30017
 724.5	30009
 725.0	30052
 725.6	29995
 726.1	30061
 726.6	30160
 727.1	30105
 727.6	30146
 728.1	30179
 728.6	30141
 729.1	30139
 729.7	30129
 730.2	30156
 730.7	30187
 731.2	30214
 731.7	30202
 732.2	30223
 732.7	30191
 733.2	30229
 733.8	30197
 734.3	30238
 734.8	30225
 735.3	30259
 735.8	30271
 736.3	30271
 736.8	30321
 737.3	30378
 737.8	30335
 738.4	30348
 738.9	30315
 739.4	30401
 739.9	30391
 740.4	30417
 740.9	30392
 741.4	30391
 741.9	30384
 742.4	30399
 742.9	30387
 743.4	30441
 744.0	30349
 744.5	30332
 745.0	30325
 745.5	30379
 746.0	30339
 746.5	30343
 747.0	30275
 747.5	30239
 748.0	30201
 748.5	30212
 749.0	30195
 749.5	30251
 750.0	30085
 750.5	30100
 751.1	30075
 751.6	30049
 752.1	30005
 752.6	29951
 753.1	29959
 753.6	29877
 754.1	29825
 754.6	29825
 755.1	29753
 755.6	29724
 756.1	29619
 756.6	29669
 757.1	29613
 757.6	29557
 758.1	29487
 758.6	29446
 759.1	29351
 759.6	29348
 760.1	29259
 760.7	29180
 761.2	29219
 761.7	29147
 762.2	29092
 762.7	29097
 763.2	28951
 763.7	28987
 764.2	28875
 764.7	28842
 765.2	28820
 765.7	28741
 766.2	28673
 766.7	28657
 767.2	28567
 767.7	28524
 768.2	28463
 768.7	28395
 769.2	28340
 769.7	28343
 770.2	28289
 770.7	28258
 771.2	28193
 771.7	28155
 772.2	28133
 772.7	28151
 773.2	28097
 773.7	28028
 774.2	27961
 774.7	27976
 775.2	27933
 775.7	27891
 776.2	27863
 776.7	27877
 777.2	27787
 777.7	27830
 778.2	27793
 778.7	27817
 779.2	27811
 779.7	27818
 780.2	27661
 780.7	27711
 781.2	27694
 781.7	27733
 782.2	27659
 782.6	27707
 783.1	27697
 783.6	27655
 784.1	27607
 784.6	27591
 785.1	27595
 785.6	27581
 786.1	27595
 786.6	27595
 787.1	27535
 787.6	27518
 788.1	27491
 788.6	27472
 789.1	27441
 789.6	27449
 790.1	27446
 790.6	27423
 791.1	27323
 791.6	27297
 792.0	27283
 792.5	27292
 793.0	27243
 793.5	27207
 794.0	27129
 794.5	27172
 795.0	27115
 795.5	27075
 796.0	27045
 796.5	26963
 797.0	26948
 797.5	26947
 798.0	26771
 798.4	26763
 798.9	26711
 799.4	26676
 799.9	26635
 800.4	26470
 800.9	26521
 801.4	26511
 801.9	26418
 802.4	26302
 802.9	26311
 803.3	26251
 803.8	26171
 804.3	26081
 804.8	26079
 805.3	25994
 805.8	25918
 806.3	25865
 806.8	25797
 807.2	25737
 807.7	25661
 808.2	25635
 808.7	25524
 809.2	25479
 809.7	25369
 810.2	25389
 810.7	25277
 811.1	25242
 811.6	25196
 812.1	25110
 812.6	25025
 813.1	25031
 813.6	25000
 814.1	24953
 814.5	24871
 815.0	24847
 815.5	24757
 816.0	24691
 816.5	24707
 817.0	24630
 817.4	24579
 817.9	24569
 818.4	24473
 818.9	24512
 819.4	24449
 819.9	24392
 820.3	24338
 820.8	24302
 821.3	24275
 821.8	24245
 822.3	24174
 822.7	24132
 823.2	24163
 823.7	24097
 824.2	24073
 824.7	24027
 825.2	24017
 825.6	23965
 826.1	23938
 826.6	23969
 827.1	23929
 827.6	23910
 828.0	23832
 828.5	23787
 829.0	23803
 829.5	23727
 829.9	23725
 830.4	23744
 830.9	23719
 831.4	23720
 831.9	23667
 832.3	23719
 832.8	23652
 833.3	23635
 833.8	23695
 834.2	23671
 834.7	23516
 835.2	23589
 835.7	23581
 836.1	23563
 836.6	23526
 837.1	23517
 837.6	23515
 838.0	23529
 838.5	23540
 839.0	23531
 839.5	23510
 839.9	23424
 840.4	23418
 840.9	23372
 841.4	23398
 841.8	23401
 842.3	23406
 842.8	23413
 843.3	23388
 843.7	23282
 844.2	23259
 844.7	23327
 845.1	23287
 845.6	23207
 846.1	23211
 846.6	23233
 847.0	23128
 847.5	23155
 848.0	23125
 848.4	23142
 848.9	23089
 849.4	23052
 849.8	23050
 850.3	23044
 850.8	23066
 851.3	23013
 851.7	22989
 852.2	22975
 852.7	22953
 853.1	22921
 853.6	22840
 854.1	22863
 854.5	22819
 855.0	22787
 855.5	22759
 855.9	22793
 856.4	22764
 856.9	22663
 857.3	22687
 857.8	22636
 858.3	22642
 858.7	22575
 859.2	22584
 859.7	22584
 860.1	22625
 860.6	22585
 861.1	22507
 861.5	22527
 862.0	22509
 862.4	22462
 862.9	22403
 863.4	22431
 863.8	22422
 864.3	22395
 864.8	22302
 865.2	22328
 865.7	22330
 866.1	22326
 866.6	22227
 867.1	22285
 867.5	22251
 868.0	22215
 868.5	22143
 868.9	22122
 869.4	22199
 869.8	22140
 870.3	22073
 870.8	22130
 871.2	22069
 871.7	22047
 872.1	21966
 872.6	22003
 873.0	21957
 873.5	22013
 874.0	21975
 874.4	21835
 874.9	21849
 875.3	21775
 875.8	21665
 876.2	21445
 876.7	21274
 877.2	20921
 877.6	20489
 878.1	20042
