#xlabel Wavelength (nm)
#ylabel Spectrometer Array Counts
#title Exposure time is 9300 ms
## lambda	counts
 349.8	16685
 350.3	16920
 350.8	17153
 351.3	17326
 351.9	17423
 352.4	17533
 352.9	17616
 353.4	17586
 354.0	17602
 354.5	17650
 355.0	17662
 355.5	17680
 356.0	17643
 356.6	17612
 357.1	17657
 357.6	17634
 358.1	17664
 358.7	17605
 359.2	17618
 359.7	17631
 360.2	17661
 360.8	17631
 361.3	17714
 361.8	17658
 362.3	17688
 362.9	17649
 363.4	17719
 363.9	17715
 364.4	17735
 364.9	17653
 365.5	17718
 366.0	17699
 366.5	17659
 367.0	17704
 367.6	17722
 368.1	17719
 368.6	17655
 369.1	17710
 369.7	17757
 370.2	17683
 370.7	17672
 371.2	17723
 371.8	17764
 372.3	17688
 372.8	17757
 373.3	17772
 373.9	17719
 374.4	17727
 374.9	17779
 375.5	17674
 376.0	17787
 376.5	17750
 377.0	17770
 377.6	17713
 378.1	17782
 378.6	17722
 379.1	17726
 379.7	17708
 380.2	17773
 380.7	17769
 381.2	17720
 381.8	17714
 382.3	17752
 382.8	17730
 383.4	17770
 383.9	17726
 384.4	17863
 384.9	17781
 385.5	17796
 386.0	17796
 386.5	17859
 387.1	17793
 387.6	17803
 388.1	17806
 388.6	17821
 389.2	17802
 389.7	17827
 390.2	17803
 390.8	17887
 391.3	17848
 391.8	17846
 392.3	17830
 392.9	17822
 393.4	17807
 393.9	17879
 394.5	17875
 395.0	17821
 395.5	17843
 396.0	17835
 396.6	17807
 397.1	17887
 397.6	17883
 398.2	17884
 398.7	17875
 399.2	17964
 399.8	17843
 400.3	17901
 400.8	17944
 401.3	17924
 401.9	17933
 402.4	17945
 402.9	17933
 403.5	17956
 404.0	17940
 404.5	17892
 405.1	17897
 405.6	17986
 406.1	17951
 406.7	17963
 407.2	17957
 407.7	18034
 408.2	18022
 408.8	18025
 409.3	18050
 409.8	18089
 410.4	18050
 410.9	18043
 411.4	17998
 412.0	18055
 412.5	18098
 413.0	18049
 413.6	18088
 414.1	18048
 414.6	18078
 415.2	18117
 415.7	18050
 416.2	18101
 416.8	18073
 417.3	18060
 417.8	18077
 418.4	18163
 418.9	18093
 419.4	18223
 420.0	18107
 420.5	18164
 421.0	18111
 421.5	18190
 422.1	18171
 422.6	18211
 423.1	18229
 423.7	18202
 424.2	18189
 424.7	18221
 425.3	18193
 425.8	18210
 426.3	18202
 426.9	18255
 427.4	18197
 427.9	18300
 428.5	18236
 429.0	18274
 429.6	18232
 430.1	18306
 430.6	18295
 431.2	18237
 431.7	18325
 432.2	18289
 432.8	18267
 433.3	18367
 433.8	18363
 434.4	18337
 434.9	18348
 435.4	18386
 436.0	18367
 436.5	18356
 437.0	18422
 437.6	18393
 438.1	18443
 438.6	18448
 439.2	18468
 439.7	18459
 440.2	18405
 440.8	18430
 441.3	18436
 441.8	18436
 442.4	18398
 442.9	18433
 443.5	18463
 444.0	18451
 444.5	18476
 445.1	18401
 445.6	18433
 446.1	18447
 446.7	18459
 447.2	18476
 447.7	18461
 448.3	18528
 448.8	18484
 449.3	18519
 449.9	18463
 450.4	18556
 450.9	18591
 451.5	18587
 452.0	18560
 452.6	18581
 453.1	18623
 453.6	18631
 454.2	18525
 454.7	18598
 455.2	18615
 455.8	18659
 456.3	18598
 456.8	18720
 457.4	18643
 457.9	18653
 458.5	18698
 459.0	18655
 459.5	18699
 460.1	18649
 460.6	18688
 461.1	18676
 461.7	18721
 462.2	18678
 462.7	18711
 463.3	18642
 463.8	18713
 464.4	18773
 464.9	18721
 465.4	18779
 466.0	18681
 466.5	18744
 467.0	18687
 467.6	18750
 468.1	18833
 468.7	18760
 469.2	18703
 469.7	18785
 470.3	18769
 470.8	18799
 471.3	18781
 471.9	18743
 472.4	18788
 473.0	18830
 473.5	18837
 474.0	18830
 474.6	18841
 475.1	18833
 475.6	18892
 476.2	18907
 476.7	18880
 477.3	18938
 477.8	18881
 478.3	18819
 478.9	19001
 479.4	18893
 479.9	18906
 480.5	18889
 481.0	18911
 481.6	18937
 482.1	18993
 482.6	18979
 483.2	18981
 483.7	19087
 484.2	19027
 484.8	18879
 485.3	18973
 485.9	19040
 486.4	19000
 486.9	19025
 487.5	18985
 488.0	18992
 488.6	19046
 489.1	19055
 489.6	19102
 490.2	19101
 490.7	19060
 491.2	19035
 491.8	19084
 492.3	19042
 492.9	19082
 493.4	19097
 493.9	19104
 494.5	19111
 495.0	19170
 495.6	19097
 496.1	19101
 496.6	19159
 497.2	19083
 497.7	19042
 498.2	19128
 498.8	19150
 499.3	19067
 499.9	19127
 500.4	19115
 500.9	19107
 501.5	19093
 502.0	19161
 502.6	19139
 503.1	19221
 503.6	19194
 504.2	19139
 504.7	19151
 505.2	19213
 505.8	19214
 506.3	19284
 506.9	19290
 507.4	19262
 507.9	19241
 508.5	19278
 509.0	19322
 509.6	19379
 510.1	19355
 510.6	19393
 511.2	19417
 511.7	19399
 512.2	19468
 512.8	19486
 513.3	19452
 513.9	19448
 514.4	19505
 514.9	19566
 515.5	19479
 516.0	19551
 516.6	19522
 517.1	19573
 517.6	19550
 518.2	19529
 518.7	19463
 519.3	19515
 519.8	19555
 520.3	19546
 520.9	19501
 521.4	19504
 521.9	19555
 522.5	19481
 523.0	19501
 523.6	19538
 524.1	19394
 524.6	19445
 525.2	19468
 525.7	19499
 526.3	19419
 526.8	19511
 527.3	19459
 527.9	19485
 528.4	19474
 528.9	19534
 529.5	19549
 530.0	19532
 530.6	19581
 531.1	19585
 531.6	19506
 532.2	19626
 532.7	19587
 533.3	19623
 533.8	19747
 534.3	19780
 534.9	19786
 535.4	19728
 536.0	19802
 536.5	19846
 537.0	19813
 537.6	19843
 538.1	19889
 538.6	19917
 539.2	19858
 539.7	19876
 540.3	19975
 540.8	19939
 541.3	19902
 541.9	19935
 542.4	19937
 543.0	20004
 543.5	19961
 544.0	19942
 544.6	19977
 545.1	19991
 545.6	20023
 546.2	20008
 546.7	19927
 547.3	19982
 547.8	19955
 548.3	20009
 548.9	19925
 549.4	19930
 550.0	19890
 550.5	19958
 551.0	19999
 551.6	19953
 552.1	19964
 552.6	19962
 553.2	19942
 553.7	19920
 554.3	19955
 554.8	20020
 555.3	19885
 555.9	19954
 556.4	19911
 556.9	20008
 557.5	20029
 558.0	19992
 558.6	19967
 559.1	20037
 559.6	20021
 560.2	20024
 560.7	20024
 561.3	20006
 561.8	19983
 562.3	20099
 562.9	20083
 563.4	20111
 563.9	20106
 564.5	20111
 565.0	20097
 565.6	20116
 566.1	20117
 566.6	20117
 567.2	20107
 567.7	20209
 568.2	20118
 568.8	20135
 569.3	20103
 569.9	20171
 570.4	20163
 570.9	20136
 571.5	20134
 572.0	20126
 572.5	20167
 573.1	20123
 573.6	20171
 574.1	20161
 574.7	20161
 575.2	20137
 575.8	20169
 576.3	20247
 576.8	20213
 577.4	20223
 577.9	20244
 578.4	20200
 579.0	20216
 579.5	20308
 580.1	20240
 580.6	20245
 581.1	20319
 581.7	20337
 582.2	20279
 582.7	20328
 583.3	20372
 583.8	20341
 584.3	20293
 584.9	20351
 585.4	20363
 586.0	20331
 586.5	20369
 587.0	20327
 587.6	20397
 588.1	20354
 588.6	20422
 589.2	20377
 589.7	20387
 590.2	20373
 590.8	20365
 591.3	20398
 591.9	20335
 592.4	20397
 592.9	20337
 593.5	20329
 594.0	20322
 594.5	20332
 595.1	20309
 595.6	20293
 596.1	20347
 596.7	20307
 597.2	20336
 597.7	20277
 598.3	20285
 598.8	20255
 599.3	20269
 599.9	20250
 600.4	20243
 601.0	20239
 601.5	20232
 602.0	20215
 602.6	20165
 603.1	20189
 603.6	20185
 604.2	20285
 604.7	20189
 605.2	20254
 605.8	20176
 606.3	20203
 606.8	20263
 607.4	20248
 607.9	20283
 608.4	20231
 609.0	20262
 609.5	20303
 610.0	20283
 610.6	20370
 611.1	20297
 611.6	20319
 612.2	20322
 612.7	20386
 613.2	20372
 613.8	20309
 614.3	20344
 614.8	20394
 615.4	20328
 615.9	20413
 616.4	20467
 617.0	20428
 617.5	20519
 618.0	20530
 618.6	20461
 619.1	20499
 619.6	20569
 620.2	20571
 620.7	20629
 621.2	20594
 621.8	20639
 622.3	20667
 622.8	20625
 623.4	20667
 623.9	20722
 624.4	20697
 625.0	20696
 625.5	20707
 626.0	20715
 626.6	20760
 627.1	20751
 627.6	20700
 628.2	20673
 628.7	20703
 629.2	20685
 629.8	20716
 630.3	20723
 630.8	20707
 631.4	20689
 631.9	20710
 632.4	20607
 632.9	20616
 633.5	20615
 634.0	20571
 634.5	20651
 635.1	20578
 635.6	20553
 636.1	20537
 636.7	20592
 637.2	20570
 637.7	20485
 638.3	20574
 638.8	20571
 639.3	20574
 639.8	20530
 640.4	20549
 640.9	20564
 641.4	20474
 642.0	20463
 642.5	20479
 643.0	20454
 643.6	20530
 644.1	20493
 644.6	20501
 645.1	20534
 645.7	20512
 646.2	20483
 646.7	20496
 647.3	20522
 647.8	20523
 648.3	20509
 648.9	20547
 649.4	20466
 649.9	20532
 650.4	20540
 651.0	20580
 651.5	20593
 652.0	20643
 652.6	20587
 653.1	20663
 653.6	20586
 654.1	20659
 654.7	20609
 655.2	20689
 655.7	20725
 656.3	20739
 656.8	20690
 657.3	20745
 657.8	20695
 658.4	20686
 658.9	20690
 659.4	20781
 659.9	20773
 660.5	20745
 661.0	20795
 661.5	20838
 662.1	20795
 662.6	20815
 663.1	20774
 663.6	20845
 664.2	20811
 664.7	20785
 665.2	20707
 665.7	20821
 666.3	20793
 666.8	20805
 667.3	20799
 667.8	20758
 668.4	20795
 668.9	20794
 669.4	20777
 669.9	20810
 670.5	20753
 671.0	20769
 671.5	20719
 672.0	20777
 672.6	20785
 673.1	20809
 673.6	20720
 674.1	20751
 674.7	20744
 675.2	20789
 675.7	20650
 676.2	20666
 676.8	20718
 677.3	20732
 677.8	20667
 678.3	20772
 678.9	20707
 679.4	20657
 679.9	20711
 680.4	20721
 681.0	20687
 681.5	20715
 682.0	20694
 682.5	20718
 683.1	20632
 683.6	20687
 684.1	20624
 684.6	20721
 685.1	20665
 685.7	20684
 686.2	20653
 686.7	20625
 687.2	20613
 687.8	20680
 688.3	20623
 688.8	20650
 689.3	20597
 689.8	20618
 690.4	20622
 690.9	20629
 691.4	20626
 691.9	20656
 692.4	20606
 693.0	20679
 693.5	20647
 694.0	20633
 694.5	20626
 695.1	20609
 695.6	20574
 696.1	20636
 696.6	20626
 697.1	20641
 697.7	20667
 698.2	20601
 698.7	20624
 699.2	20584
 699.7	20592
 700.3	20571
 700.8	20553
 701.3	20666
 701.8	20622
 702.3	20569
 702.8	20578
 703.4	20543
 703.9	20555
 704.4	20555
 704.9	20516
 705.4	20523
 706.0	20615
 706.5	20606
 707.0	20519
 707.5	20509
 708.0	20539
 708.5	20495
 709.1	20556
 709.6	20526
 710.1	20493
 710.6	20467
 711.1	20472
 711.7	20497
 712.2	20502
 712.7	20503
 713.2	20485
 713.7	20489
 714.2	20450
 714.8	20525
 715.3	20473
 715.8	20483
 716.3	20488
 716.8	20407
 717.3	20392
 717.8	20499
 718.4	20517
 718.9	20449
 719.4	20525
 719.9	20445
 720.4	20485
 720.9	20489
 721.4	20491
 722.0	20509
 722.5	20493
 723.0	20479
 723.5	20493
 724.0	20457
 724.5	20452
 725.0	20471
 725.6	20410
 726.1	20453
 726.6	20566
 727.1	20507
 727.6	20541
 728.1	20563
 728.6	20527
 729.1	20509
 729.7	20498
 730.2	20522
 730.7	20558
 731.2	20584
 731.7	20569
 732.2	20576
 732.7	20551
 733.2	20594
 733.8	20572
 734.3	20593
 734.8	20566
 735.3	20585
 735.8	20571
 736.3	20553
 736.8	20581
 737.3	20614
 737.8	20566
 738.4	20570
 738.9	20525
 739.4	20609
 739.9	20586
 740.4	20590
 740.9	20589
 741.4	20577
 741.9	20577
 742.4	20595
 742.9	20579
 743.4	20659
 744.0	20577
 744.5	20577
 745.0	20590
 745.5	20657
 746.0	20633
 746.5	20640
 747.0	20589
 747.5	20575
 748.0	20548
 748.5	20563
 749.0	20578
 749.5	20659
 750.0	20501
 750.5	20562
 751.1	20571
 751.6	20563
 752.1	20555
 752.6	20525
 753.1	20550
 753.6	20490
 754.1	20462
 754.6	20515
 755.1	20465
 755.6	20477
 756.1	20398
 756.6	20491
 757.1	20457
 757.6	20436
 758.1	20410
 758.6	20425
 759.1	20359
 759.6	20387
 760.1	20335
 760.7	20306
 761.2	20379
 761.7	20327
 762.2	20311
 762.7	20363
 763.2	20225
 763.7	20307
 764.2	20237
 764.7	20247
 765.2	20273
 765.7	20245
 766.2	20201
 766.7	20245
 767.2	20199
 767.7	20206
 768.2	20181
 768.7	20154
 769.2	20145
 769.7	20192
 770.2	20158
 770.7	20159
 771.2	20139
 771.7	20119
 772.2	20129
 772.7	20167
 773.2	20149
 773.7	20105
 774.2	20047
 774.7	20103
 775.2	20094
 775.7	20075
 776.2	20063
 776.7	20090
 777.2	20018
 777.7	20090
 778.2	20073
 778.7	20108
 779.2	20117
 779.7	20146
 780.2	19997
 780.7	20065
 781.2	20074
 781.7	20137
 782.2	20056
 782.6	20129
 783.1	20135
 783.6	20098
 784.1	20071
 784.6	20057
 785.1	20071
 785.6	20058
 786.1	20096
 786.6	20112
 787.1	20057
 787.6	20056
 788.1	20043
 788.6	20039
 789.1	20037
 789.6	20071
 790.1	20080
 790.6	20081
 791.1	19995
 791.6	19995
 792.0	20021
 792.5	20051
 793.0	20034
 793.5	20029
 794.0	19964
 794.5	20044
 795.0	20041
 795.5	20006
 796.0	20020
 796.5	19969
 797.0	19993
 797.5	20031
 798.0	19891
 798.4	19934
 798.9	19920
 799.4	19933
 799.9	19937
 800.4	19817
 800.9	19905
 801.4	19963
 801.9	19918
 802.4	19857
 802.9	19923
 803.3	19907
 803.8	19873
 804.3	19827
 804.8	19887
 805.3	19839
 805.8	19822
 806.3	19818
 806.8	19797
 807.2	19785
 807.7	19762
 808.2	19789
 808.7	19717
 809.2	19725
 809.7	19661
 810.2	19720
 810.7	19660
 811.1	19671
 811.6	19674
 812.1	19631
 812.6	19591
 813.1	19636
 813.6	19649
 814.1	19625
 814.5	19583
 815.0	19600
 815.5	19563
 816.0	19523
 816.5	19585
 817.0	19539
 817.4	19518
 817.9	19553
 818.4	19491
 818.9	19562
 819.4	19521
 819.9	19503
 820.3	19467
 820.8	19472
 821.3	19467
 821.8	19474
 822.3	19434
 822.7	19419
 823.2	19472
 823.7	19421
 824.2	19428
 824.7	19405
 825.2	19421
 825.6	19399
 826.1	19392
 826.6	19445
 827.1	19432
 827.6	19420
 828.0	19366
 828.5	19339
 829.0	19372
 829.5	19314
 829.9	19327
 830.4	19376
 830.9	19363
 831.4	19384
 831.9	19344
 832.3	19419
 832.8	19369
 833.3	19360
 833.8	19443
 834.2	19431
 834.7	19284
 835.2	19373
 835.7	19370
 836.1	19365
 836.6	19343
 837.1	19354
 837.6	19362
 838.0	19393
 838.5	19413
 839.0	19419
 839.5	19409
 839.9	19335
 840.4	19333
 840.9	19301
 841.4	19341
 841.8	19362
 842.3	19375
 842.8	19396
 843.3	19387
 843.7	19299
 844.2	19283
 844.7	19369
 845.1	19341
 845.6	19265
 846.1	19284
 846.6	19315
 847.0	19225
 847.5	19264
 848.0	19249
 848.4	19292
 848.9	19265
 849.4	19243
 849.8	19265
 850.3	19259
 850.8	19307
 851.3	19269
 851.7	19260
 852.2	19271
 852.7	19260
 853.1	19237
 853.6	19187
 854.1	19230
 854.5	19205
 855.0	19182
 855.5	19179
 855.9	19237
 856.4	19233
 856.9	19140
 857.3	19193
 857.8	19167
 858.3	19211
 858.7	19162
 859.2	19177
 859.7	19175
 860.1	19227
 860.6	19209
 861.1	19145
 861.5	19187
 862.0	19201
 862.4	19167
 862.9	19129
 863.4	19172
 863.8	19178
 864.3	19175
 864.8	19095
 865.2	19147
 865.7	19170
 866.1	19177
 866.6	19101
 867.1	19175
 867.5	19150
 868.0	19133
 868.5	19085
 868.9	19099
 869.4	19190
 869.8	19142
 870.3	19106
 870.8	19169
 871.2	19123
 871.7	19115
 872.1	19060
 872.6	19110
 873.0	19077
 873.5	19154
 874.0	19131
 874.4	19014
 874.9	19050
 875.3	19009
 875.8	18915
 876.2	18730
 876.7	18599
 877.2	18302
 877.6	17927
 878.1	17578
