#xlabel Wavelength (nm)
#ylabel Spectrometer Array Counts
#title Exposure time is 9300 ms
## lambda	counts
 349.8	16686
 350.3	16926
 350.8	17161
 351.3	17336
 351.9	17435
 352.4	17549
 352.9	17626
 353.4	17599
 354.0	17609
 354.5	17657
 355.0	17664
 355.5	17684
 356.0	17641
 356.6	17612
 357.1	17657
 357.6	17641
 358.1	17663
 358.7	17603
 359.2	17616
 359.7	17633
 360.2	17665
 360.8	17628
 361.3	17719
 361.8	17667
 362.3	17690
 362.9	17653
 363.4	17723
 363.9	17719
 364.4	17744
 364.9	17661
 365.5	17729
 366.0	17704
 366.5	17663
 367.0	17708
 367.6	17727
 368.1	17720
 368.6	17657
 369.1	17710
 369.7	17762
 370.2	17686
 370.7	17681
 371.2	17725
 371.8	17769
 372.3	17693
 372.8	17760
 373.3	17776
 373.9	17721
 374.4	17731
 374.9	17772
 375.5	17678
 376.0	17792
 376.5	17753
 377.0	17774
 377.6	17719
 378.1	17789
 378.6	17727
 379.1	17725
 379.7	17711
 380.2	17776
 380.7	17774
 381.2	17727
 381.8	17721
 382.3	17755
 382.8	17733
 383.4	17774
 383.9	17733
 384.4	17867
 384.9	17781
 385.5	17795
 386.0	17799
 386.5	17864
 387.1	17798
 387.6	17807
 388.1	17816
 388.6	17828
 389.2	17809
 389.7	17834
 390.2	17809
 390.8	17889
 391.3	17851
 391.8	17852
 392.3	17836
 392.9	17821
 393.4	17815
 393.9	17879
 394.5	17875
 395.0	17820
 395.5	17845
 396.0	17842
 396.6	17813
 397.1	17892
 397.6	17887
 398.2	17887
 398.7	17885
 399.2	17971
 399.8	17850
 400.3	17906
 400.8	17951
 401.3	17930
 401.9	17942
 402.4	17952
 402.9	17934
 403.5	17964
 404.0	17946
 404.5	17901
 405.1	17901
 405.6	17989
 406.1	17955
 406.7	17961
 407.2	17964
 407.7	18040
 408.2	18025
 408.8	18029
 409.3	18052
 409.8	18093
 410.4	18054
 410.9	18047
 411.4	18006
 412.0	18059
 412.5	18101
 413.0	18056
 413.6	18093
 414.1	18053
 414.6	18087
 415.2	18121
 415.7	18059
 416.2	18102
 416.8	18080
 417.3	18064
 417.8	18081
 418.4	18161
 418.9	18100
 419.4	18223
 420.0	18115
 420.5	18173
 421.0	18123
 421.5	18190
 422.1	18171
 422.6	18216
 423.1	18238
 423.7	18213
 424.2	18195
 424.7	18231
 425.3	18202
 425.8	18215
 426.3	18208
 426.9	18263
 427.4	18197
 427.9	18304
 428.5	18243
 429.0	18283
 429.6	18234
 430.1	18314
 430.6	18300
 431.2	18241
 431.7	18329
 432.2	18296
 432.8	18271
 433.3	18371
 433.8	18369
 434.4	18340
 434.9	18351
 435.4	18388
 436.0	18370
 436.5	18360
 437.0	18429
 437.6	18403
 438.1	18447
 438.6	18446
 439.2	18475
 439.7	18462
 440.2	18412
 440.8	18439
 441.3	18439
 441.8	18443
 442.4	18399
 442.9	18431
 443.5	18467
 444.0	18455
 444.5	18480
 445.1	18398
 445.6	18439
 446.1	18448
 446.7	18461
 447.2	18487
 447.7	18470
 448.3	18532
 448.8	18489
 449.3	18522
 449.9	18467
 450.4	18560
 450.9	18596
 451.5	18591
 452.0	18557
 452.6	18587
 453.1	18623
 453.6	18641
 454.2	18531
 454.7	18599
 455.2	18612
 455.8	18660
 456.3	18599
 456.8	18720
 457.4	18650
 457.9	18655
 458.5	18704
 459.0	18657
 459.5	18700
 460.1	18655
 460.6	18695
 461.1	18681
 461.7	18727
 462.2	18682
 462.7	18717
 463.3	18649
 463.8	18717
 464.4	18778
 464.9	18726
 465.4	18788
 466.0	18689
 466.5	18751
 467.0	18697
 467.6	18757
 468.1	18835
 468.7	18766
 469.2	18705
 469.7	18793
 470.3	18773
 470.8	18803
 471.3	18781
 471.9	18739
 472.4	18791
 473.0	18831
 473.5	18845
 474.0	18838
 474.6	18843
 475.1	18838
 475.6	18902
 476.2	18915
 476.7	18887
 477.3	18942
 477.8	18883
 478.3	18823
 478.9	19006
 479.4	18895
 479.9	18913
 480.5	18899
 481.0	18918
 481.6	18941
 482.1	18995
 482.6	18979
 483.2	18983
 483.7	19095
 484.2	19031
 484.8	18879
 485.3	18971
 485.9	19043
 486.4	19005
 486.9	19020
 487.5	18987
 488.0	18997
 488.6	19050
 489.1	19057
 489.6	19113
 490.2	19099
 490.7	19065
 491.2	19036
 491.8	19087
 492.3	19039
 492.9	19089
 493.4	19097
 493.9	19103
 494.5	19112
 495.0	19178
 495.6	19095
 496.1	19111
 496.6	19167
 497.2	19089
 497.7	19054
 498.2	19138
 498.8	19162
 499.3	19068
 499.9	19128
 500.4	19122
 500.9	19109
 501.5	19097
 502.0	19166
 502.6	19144
 503.1	19224
 503.6	19193
 504.2	19150
 504.7	19151
 505.2	19217
 505.8	19219
 506.3	19290
 506.9	19293
 507.4	19266
 507.9	19247
 508.5	19284
 509.0	19326
 509.6	19386
 510.1	19354
 510.6	19399
 511.2	19420
 511.7	19408
 512.2	19470
 512.8	19490
 513.3	19455
 513.9	19451
 514.4	19507
 514.9	19572
 515.5	19483
 516.0	19554
 516.6	19527
 517.1	19576
 517.6	19556
 518.2	19530
 518.7	19472
 519.3	19519
 519.8	19555
 520.3	19551
 520.9	19503
 521.4	19506
 521.9	19561
 522.5	19481
 523.0	19507
 523.6	19539
 524.1	19398
 524.6	19455
 525.2	19473
 525.7	19509
 526.3	19427
 526.8	19513
 527.3	19467
 527.9	19491
 528.4	19473
 528.9	19534
 529.5	19555
 530.0	19535
 530.6	19577
 531.1	19589
 531.6	19513
 532.2	19625
 532.7	19588
 533.3	19627
 533.8	19749
 534.3	19783
 534.9	19784
 535.4	19733
 536.0	19809
 536.5	19851
 537.0	19814
 537.6	19847
 538.1	19894
 538.6	19915
 539.2	19860
 539.7	19880
 540.3	19986
 540.8	19939
 541.3	19909
 541.9	19941
 542.4	19942
 543.0	20003
 543.5	19959
 544.0	19946
 544.6	19987
 545.1	19996
 545.6	20028
 546.2	20015
 546.7	19931
 547.3	19987
 547.8	19958
 548.3	20008
 548.9	19930
 549.4	19930
 550.0	19900
 550.5	19958
 551.0	20005
 551.6	19950
 552.1	19971
 552.6	19971
 553.2	19950
 553.7	19922
 554.3	19958
 554.8	20023
 555.3	19891
 555.9	19954
 556.4	19916
 556.9	20008
 557.5	20036
 558.0	19995
 558.6	19971
 559.1	20043
 559.6	20023
 560.2	20028
 560.7	20025
 561.3	20007
 561.8	19985
 562.3	20098
 562.9	20083
 563.4	20114
 563.9	20107
 564.5	20117
 565.0	20100
 565.6	20119
 566.1	20112
 566.6	20125
 567.2	20112
 567.7	20213
 568.2	20123
 568.8	20140
 569.3	20103
 569.9	20177
 570.4	20166
 570.9	20141
 571.5	20132
 572.0	20123
 572.5	20179
 573.1	20131
 573.6	20175
 574.1	20164
 574.7	20170
 575.2	20139
 575.8	20175
 576.3	20251
 576.8	20216
 577.4	20228
 577.9	20243
 578.4	20202
 579.0	20220
 579.5	20312
 580.1	20244
 580.6	20248
 581.1	20329
 581.7	20349
 582.2	20280
 582.7	20326
 583.3	20375
 583.8	20343
 584.3	20297
 584.9	20354
 585.4	20366
 586.0	20333
 586.5	20374
 587.0	20332
 587.6	20404
 588.1	20362
 588.6	20429
 589.2	20375
 589.7	20387
 590.2	20375
 590.8	20371
 591.3	20397
 591.9	20346
 592.4	20403
 592.9	20343
 593.5	20335
 594.0	20323
 594.5	20339
 595.1	20317
 595.6	20294
 596.1	20345
 596.7	20308
 597.2	20344
 597.7	20282
 598.3	20293
 598.8	20262
 599.3	20271
 599.9	20252
 600.4	20245
 601.0	20246
 601.5	20232
 602.0	20225
 602.6	20178
 603.1	20191
 603.6	20189
 604.2	20282
 604.7	20193
 605.2	20262
 605.8	20180
 606.3	20205
 606.8	20272
 607.4	20249
 607.9	20285
 608.4	20241
 609.0	20266
 609.5	20313
 610.0	20290
 610.6	20376
 611.1	20304
 611.6	20326
 612.2	20324
 612.7	20389
 613.2	20380
 613.8	20314
 614.3	20354
 614.8	20401
 615.4	20330
 615.9	20423
 616.4	20475
 617.0	20434
 617.5	20523
 618.0	20536
 618.6	20465
 619.1	20502
 619.6	20581
 620.2	20574
 620.7	20633
 621.2	20602
 621.8	20642
 622.3	20670
 622.8	20633
 623.4	20668
 623.9	20722
 624.4	20699
 625.0	20700
 625.5	20711
 626.0	20721
 626.6	20761
 627.1	20755
 627.6	20709
 628.2	20677
 628.7	20707
 629.2	20691
 629.8	20719
 630.3	20725
 630.8	20710
 631.4	20687
 631.9	20716
 632.4	20607
 632.9	20619
 633.5	20617
 634.0	20577
 634.5	20651
 635.1	20586
 635.6	20558
 636.1	20541
 636.7	20593
 637.2	20579
 637.7	20491
 638.3	20579
 638.8	20577
 639.3	20578
 639.8	20534
 640.4	20552
 640.9	20567
 641.4	20479
 642.0	20469
 642.5	20490
 643.0	20461
 643.6	20539
 644.1	20496
 644.6	20504
 645.1	20543
 645.7	20517
 646.2	20484
 646.7	20500
 647.3	20533
 647.8	20526
 648.3	20515
 648.9	20546
 649.4	20468
 649.9	20534
 650.4	20542
 651.0	20585
 651.5	20593
 652.0	20645
 652.6	20591
 653.1	20670
 653.6	20583
 654.1	20661
 654.7	20614
 655.2	20693
 655.7	20734
 656.3	20747
 656.8	20691
 657.3	20750
 657.8	20701
 658.4	20693
 658.9	20701
 659.4	20783
 659.9	20776
 660.5	20751
 661.0	20794
 661.5	20839
 662.1	20802
 662.6	20814
 663.1	20776
 663.6	20845
 664.2	20816
 664.7	20785
 665.2	20707
 665.7	20821
 666.3	20792
 666.8	20804
 667.3	20806
 667.8	20765
 668.4	20801
 668.9	20799
 669.4	20784
 669.9	20817
 670.5	20755
 671.0	20771
 671.5	20725
 672.0	20778
 672.6	20787
 673.1	20811
 673.6	20727
 674.1	20758
 674.7	20745
 675.2	20797
 675.7	20658
 676.2	20668
 676.8	20721
 677.3	20739
 677.8	20668
 678.3	20774
 678.9	20706
 679.4	20659
 679.9	20716
 680.4	20721
 681.0	20692
 681.5	20722
 682.0	20703
 682.5	20723
 683.1	20638
 683.6	20687
 684.1	20625
 684.6	20730
 685.1	20673
 685.7	20696
 686.2	20656
 686.7	20630
 687.2	20617
 687.8	20685
 688.3	20623
 688.8	20656
 689.3	20605
 689.8	20627
 690.4	20623
 690.9	20629
 691.4	20637
 691.9	20658
 692.4	20614
 693.0	20679
 693.5	20657
 694.0	20639
 694.5	20635
 695.1	20614
 695.6	20579
 696.1	20645
 696.6	20630
 697.1	20645
 697.7	20674
 698.2	20606
 698.7	20629
 699.2	20595
 699.7	20596
 700.3	20579
 700.8	20561
 701.3	20671
 701.8	20623
 702.3	20570
 702.8	20579
 703.4	20543
 703.9	20561
 704.4	20561
 704.9	20523
 705.4	20527
 706.0	20619
 706.5	20607
 707.0	20521
 707.5	20509
 708.0	20542
 708.5	20495
 709.1	20561
 709.6	20529
 710.1	20503
 710.6	20471
 711.1	20476
 711.7	20498
 712.2	20506
 712.7	20509
 713.2	20490
 713.7	20493
 714.2	20454
 714.8	20526
 715.3	20475
 715.8	20487
 716.3	20495
 716.8	20409
 717.3	20398
 717.8	20501
 718.4	20517
 718.9	20457
 719.4	20528
 719.9	20451
 720.4	20489
 720.9	20493
 721.4	20492
 722.0	20509
 722.5	20502
 723.0	20487
 723.5	20500
 724.0	20468
 724.5	20457
 725.0	20474
 725.6	20410
 726.1	20460
 726.6	20571
 727.1	20511
 727.6	20547
 728.1	20563
 728.6	20523
 729.1	20509
 729.7	20501
 730.2	20528
 730.7	20565
 731.2	20585
 731.7	20573
 732.2	20581
 732.7	20558
 733.2	20604
 733.8	20582
 734.3	20597
 734.8	20572
 735.3	20595
 735.8	20575
 736.3	20555
 736.8	20578
 737.3	20617
 737.8	20569
 738.4	20573
 738.9	20530
 739.4	20613
 739.9	20593
 740.4	20597
 740.9	20593
 741.4	20585
 741.9	20582
 742.4	20596
 742.9	20585
 743.4	20661
 744.0	20581
 744.5	20580
 745.0	20591
 745.5	20667
 746.0	20639
 746.5	20644
 747.0	20594
 747.5	20583
 748.0	20549
 748.5	20567
 749.0	20579
 749.5	20665
 750.0	20508
 750.5	20566
 751.1	20575
 751.6	20564
 752.1	20559
 752.6	20528
 753.1	20556
 753.6	20497
 754.1	20464
 754.6	20514
 755.1	20473
 755.6	20475
 756.1	20402
 756.6	20498
 757.1	20464
 757.6	20443
 758.1	20418
 758.6	20431
 759.1	20365
 759.6	20394
 760.1	20338
 760.7	20313
 761.2	20387
 761.7	20329
 762.2	20311
 762.7	20365
 763.2	20226
 763.7	20311
 764.2	20244
 764.7	20247
 765.2	20280
 765.7	20249
 766.2	20208
 766.7	20248
 767.2	20209
 767.7	20215
 768.2	20187
 768.7	20161
 769.2	20149
 769.7	20195
 770.2	20166
 770.7	20165
 771.2	20151
 771.7	20122
 772.2	20133
 772.7	20173
 773.2	20154
 773.7	20112
 774.2	20055
 774.7	20104
 775.2	20102
 775.7	20076
 776.2	20067
 776.7	20092
 777.2	20030
 777.7	20093
 778.2	20075
 778.7	20111
 779.2	20123
 779.7	20153
 780.2	20004
 780.7	20069
 781.2	20077
 781.7	20143
 782.2	20066
 782.6	20131
 783.1	20137
 783.6	20102
 784.1	20072
 784.6	20063
 785.1	20073
 785.6	20060
 786.1	20097
 786.6	20114
 787.1	20061
 787.6	20062
 788.1	20047
 788.6	20045
 789.1	20038
 789.6	20075
 790.1	20086
 790.6	20089
 791.1	19997
 791.6	19997
 792.0	20025
 792.5	20052
 793.0	20046
 793.5	20034
 794.0	19969
 794.5	20051
 795.0	20043
 795.5	20013
 796.0	20025
 796.5	19974
 797.0	20003
 797.5	20035
 798.0	19898
 798.4	19935
 798.9	19925
 799.4	19939
 799.9	19939
 800.4	19818
 800.9	19907
 801.4	19967
 801.9	19923
 802.4	19866
 802.9	19921
 803.3	19914
 803.8	19875
 804.3	19828
 804.8	19891
 805.3	19841
 805.8	19823
 806.3	19824
 806.8	19804
 807.2	19794
 807.7	19767
 808.2	19798
 808.7	19722
 809.2	19729
 809.7	19664
 810.2	19726
 810.7	19663
 811.1	19677
 811.6	19674
 812.1	19635
 812.6	19601
 813.1	19644
 813.6	19653
 814.1	19629
 814.5	19595
 815.0	19607
 815.5	19576
 816.0	19528
 816.5	19591
 817.0	19542
 817.4	19520
 817.9	19555
 818.4	19496
 818.9	19569
 819.4	19523
 819.9	19503
 820.3	19475
 820.8	19481
 821.3	19471
 821.8	19481
 822.3	19441
 822.7	19415
 823.2	19474
 823.7	19425
 824.2	19431
 824.7	19409
 825.2	19433
 825.6	19405
 826.1	19398
 826.6	19441
 827.1	19435
 827.6	19425
 828.0	19368
 828.5	19336
 829.0	19377
 829.5	19318
 829.9	19328
 830.4	19379
 830.9	19365
 831.4	19387
 831.9	19350
 832.3	19421
 832.8	19372
 833.3	19365
 833.8	19447
 834.2	19432
 834.7	19289
 835.2	19375
 835.7	19378
 836.1	19370
 836.6	19354
 837.1	19358
 837.6	19367
 838.0	19399
 838.5	19421
 839.0	19422
 839.5	19413
 839.9	19338
 840.4	19340
 840.9	19309
 841.4	19353
 841.8	19367
 842.3	19374
 842.8	19399
 843.3	19392
 843.7	19294
 844.2	19285
 844.7	19380
 845.1	19347
 845.6	19268
 846.1	19288
 846.6	19329
 847.0	19219
 847.5	19272
 848.0	19252
 848.4	19290
 848.9	19261
 849.4	19246
 849.8	19265
 850.3	19261
 850.8	19306
 851.3	19274
 851.7	19265
 852.2	19272
 852.7	19261
 853.1	19242
 853.6	19191
 854.1	19239
 854.5	19201
 855.0	19193
 855.5	19181
 855.9	19243
 856.4	19234
 856.9	19146
 857.3	19201
 857.8	19171
 858.3	19214
 858.7	19170
 859.2	19183
 859.7	19179
 860.1	19230
 860.6	19213
 861.1	19152
 861.5	19195
 862.0	19207
 862.4	19177
 862.9	19139
 863.4	19181
 863.8	19183
 864.3	19179
 864.8	19098
 865.2	19151
 865.7	19175
 866.1	19182
 866.6	19105
 867.1	19180
 867.5	19158
 868.0	19141
 868.5	19090
 868.9	19102
 869.4	19196
 869.8	19150
 870.3	19103
 870.8	19173
 871.2	19125
 871.7	19113
 872.1	19062
 872.6	19113
 873.0	19087
 873.5	19163
 874.0	19142
 874.4	19026
 874.9	19063
 875.3	19021
 875.8	18926
 876.2	18741
 876.7	18612
 877.2	18311
 877.6	17941
 878.1	17581
