#xlabel Wavelength (nm)
#ylabel Spectrometer Array Counts
#title Exposure time is 9300 ms
## lambda	counts
 349.8	16700
 350.3	16947
 350.8	17189
 351.3	17366
 351.9	17463
 352.4	17573
 352.9	17651
 353.4	17622
 354.0	17623
 354.5	17667
 355.0	17675
 355.5	17691
 356.0	17647
 356.6	17616
 357.1	17656
 357.6	17642
 358.1	17667
 358.7	17605
 359.2	17621
 359.7	17638
 360.2	17670
 360.8	17636
 361.3	17726
 361.8	17665
 362.3	17699
 362.9	17655
 363.4	17726
 363.9	17720
 364.4	17748
 364.9	17666
 365.5	17733
 366.0	17710
 366.5	17671
 367.0	17715
 367.6	17739
 368.1	17731
 368.6	17667
 369.1	17722
 369.7	17764
 370.2	17687
 370.7	17683
 371.2	17727
 371.8	17777
 372.3	17699
 372.8	17770
 373.3	17780
 373.9	17727
 374.4	17739
 374.9	17780
 375.5	17682
 376.0	17794
 376.5	17762
 377.0	17783
 377.6	17724
 378.1	17794
 378.6	17735
 379.1	17731
 379.7	17718
 380.2	17781
 380.7	17778
 381.2	17733
 381.8	17724
 382.3	17761
 382.8	17741
 383.4	17782
 383.9	17738
 384.4	17872
 384.9	17789
 385.5	17805
 386.0	17805
 386.5	17871
 387.1	17802
 387.6	17821
 388.1	17820
 388.6	17832
 389.2	17817
 389.7	17841
 390.2	17815
 390.8	17894
 391.3	17855
 391.8	17851
 392.3	17841
 392.9	17834
 393.4	17822
 393.9	17887
 394.5	17891
 395.0	17830
 395.5	17852
 396.0	17847
 396.6	17817
 397.1	17897
 397.6	17893
 398.2	17894
 398.7	17893
 399.2	17975
 399.8	17855
 400.3	17912
 400.8	17955
 401.3	17933
 401.9	17947
 402.4	17959
 402.9	17940
 403.5	17965
 404.0	17950
 404.5	17900
 405.1	17903
 405.6	17996
 406.1	17961
 406.7	17968
 407.2	17972
 407.7	18049
 408.2	18036
 408.8	18033
 409.3	18065
 409.8	18097
 410.4	18063
 410.9	18054
 411.4	18015
 412.0	18067
 412.5	18109
 413.0	18067
 413.6	18099
 414.1	18062
 414.6	18091
 415.2	18126
 415.7	18063
 416.2	18111
 416.8	18087
 417.3	18069
 417.8	18088
 418.4	18175
 418.9	18109
 419.4	18234
 420.0	18119
 420.5	18181
 421.0	18128
 421.5	18198
 422.1	18178
 422.6	18227
 423.1	18244
 423.7	18219
 424.2	18202
 424.7	18237
 425.3	18207
 425.8	18221
 426.3	18211
 426.9	18269
 427.4	18207
 427.9	18313
 428.5	18253
 429.0	18286
 429.6	18244
 430.1	18318
 430.6	18308
 431.2	18249
 431.7	18341
 432.2	18306
 432.8	18282
 433.3	18379
 433.8	18379
 434.4	18351
 434.9	18360
 435.4	18395
 436.0	18374
 436.5	18367
 437.0	18435
 437.6	18406
 438.1	18458
 438.6	18455
 439.2	18483
 439.7	18474
 440.2	18421
 440.8	18448
 441.3	18447
 441.8	18448
 442.4	18407
 442.9	18444
 443.5	18479
 444.0	18465
 444.5	18489
 445.1	18411
 445.6	18450
 446.1	18462
 446.7	18475
 447.2	18495
 447.7	18478
 448.3	18541
 448.8	18499
 449.3	18531
 449.9	18477
 450.4	18566
 450.9	18605
 451.5	18600
 452.0	18563
 452.6	18596
 453.1	18634
 453.6	18649
 454.2	18542
 454.7	18609
 455.2	18625
 455.8	18667
 456.3	18611
 456.8	18734
 457.4	18658
 457.9	18668
 458.5	18712
 459.0	18670
 459.5	18709
 460.1	18659
 460.6	18707
 461.1	18692
 461.7	18736
 462.2	18692
 462.7	18727
 463.3	18657
 463.8	18727
 464.4	18788
 464.9	18733
 465.4	18796
 466.0	18697
 466.5	18765
 467.0	18700
 467.6	18765
 468.1	18847
 468.7	18774
 469.2	18709
 469.7	18797
 470.3	18783
 470.8	18811
 471.3	18799
 471.9	18751
 472.4	18802
 473.0	18843
 473.5	18855
 474.0	18847
 474.6	18852
 475.1	18844
 475.6	18911
 476.2	18923
 476.7	18893
 477.3	18953
 477.8	18893
 478.3	18834
 478.9	19017
 479.4	18907
 479.9	18921
 480.5	18909
 481.0	18927
 481.6	18951
 482.1	19007
 482.6	18990
 483.2	18996
 483.7	19103
 484.2	19039
 484.8	18891
 485.3	18982
 485.9	19050
 486.4	19013
 486.9	19039
 487.5	18997
 488.0	19005
 488.6	19059
 489.1	19069
 489.6	19121
 490.2	19115
 490.7	19074
 491.2	19044
 491.8	19092
 492.3	19051
 492.9	19098
 493.4	19113
 493.9	19121
 494.5	19125
 495.0	19193
 495.6	19114
 496.1	19117
 496.6	19175
 497.2	19096
 497.7	19061
 498.2	19148
 498.8	19166
 499.3	19081
 499.9	19142
 500.4	19135
 500.9	19123
 501.5	19109
 502.0	19181
 502.6	19156
 503.1	19239
 503.6	19206
 504.2	19159
 504.7	19166
 505.2	19234
 505.8	19231
 506.3	19302
 506.9	19306
 507.4	19277
 507.9	19254
 508.5	19292
 509.0	19334
 509.6	19397
 510.1	19370
 510.6	19410
 511.2	19434
 511.7	19417
 512.2	19482
 512.8	19502
 513.3	19471
 513.9	19463
 514.4	19521
 514.9	19583
 515.5	19495
 516.0	19565
 516.6	19537
 517.1	19586
 517.6	19560
 518.2	19539
 518.7	19481
 519.3	19531
 519.8	19569
 520.3	19565
 520.9	19512
 521.4	19517
 521.9	19569
 522.5	19494
 523.0	19522
 523.6	19550
 524.1	19411
 524.6	19465
 525.2	19481
 525.7	19516
 526.3	19437
 526.8	19527
 527.3	19473
 527.9	19498
 528.4	19488
 528.9	19547
 529.5	19561
 530.0	19549
 530.6	19593
 531.1	19597
 531.6	19528
 532.2	19638
 532.7	19601
 533.3	19639
 533.8	19765
 534.3	19797
 534.9	19791
 535.4	19747
 536.0	19819
 536.5	19864
 537.0	19824
 537.6	19854
 538.1	19902
 538.6	19928
 539.2	19871
 539.7	19895
 540.3	19996
 540.8	19955
 541.3	19921
 541.9	19953
 542.4	19953
 543.0	20017
 543.5	19976
 544.0	19954
 544.6	19999
 545.1	20010
 545.6	20044
 546.2	20029
 546.7	19942
 547.3	19995
 547.8	19971
 548.3	20025
 548.9	19942
 549.4	19950
 550.0	19909
 550.5	19971
 551.0	20013
 551.6	19964
 552.1	19981
 552.6	19986
 553.2	19960
 553.7	19936
 554.3	19975
 554.8	20039
 555.3	19903
 555.9	19971
 556.4	19929
 556.9	20023
 557.5	20045
 558.0	20008
 558.6	19985
 559.1	20051
 559.6	20039
 560.2	20043
 560.7	20039
 561.3	20019
 561.8	19999
 562.3	20109
 562.9	20095
 563.4	20124
 563.9	20119
 564.5	20123
 565.0	20109
 565.6	20131
 566.1	20131
 566.6	20134
 567.2	20129
 567.7	20221
 568.2	20136
 568.8	20153
 569.3	20123
 569.9	20194
 570.4	20179
 570.9	20150
 571.5	20146
 572.0	20138
 572.5	20191
 573.1	20143
 573.6	20188
 574.1	20182
 574.7	20183
 575.2	20157
 575.8	20191
 576.3	20263
 576.8	20232
 577.4	20240
 577.9	20259
 578.4	20214
 579.0	20235
 579.5	20323
 580.1	20254
 580.6	20264
 581.1	20335
 581.7	20363
 582.2	20293
 582.7	20342
 583.3	20387
 583.8	20355
 584.3	20313
 584.9	20366
 585.4	20376
 586.0	20350
 586.5	20383
 587.0	20348
 587.6	20415
 588.1	20370
 588.6	20442
 589.2	20388
 589.7	20401
 590.2	20392
 590.8	20383
 591.3	20405
 591.9	20358
 592.4	20415
 592.9	20357
 593.5	20349
 594.0	20334
 594.5	20353
 595.1	20331
 595.6	20307
 596.1	20363
 596.7	20322
 597.2	20357
 597.7	20294
 598.3	20301
 598.8	20272
 599.3	20283
 599.9	20268
 600.4	20263
 601.0	20264
 601.5	20246
 602.0	20234
 602.6	20193
 603.1	20205
 603.6	20201
 604.2	20299
 604.7	20207
 605.2	20275
 605.8	20190
 606.3	20216
 606.8	20287
 607.4	20263
 607.9	20296
 608.4	20255
 609.0	20278
 609.5	20326
 610.0	20297
 610.6	20391
 611.1	20315
 611.6	20339
 612.2	20335
 612.7	20407
 613.2	20391
 613.8	20329
 614.3	20359
 614.8	20411
 615.4	20347
 615.9	20429
 616.4	20487
 617.0	20439
 617.5	20533
 618.0	20547
 618.6	20476
 619.1	20513
 619.6	20593
 620.2	20587
 620.7	20645
 621.2	20612
 621.8	20658
 622.3	20685
 622.8	20646
 623.4	20681
 623.9	20737
 624.4	20715
 625.0	20715
 625.5	20719
 626.0	20731
 626.6	20777
 627.1	20772
 627.6	20718
 628.2	20690
 628.7	20726
 629.2	20701
 629.8	20734
 630.3	20741
 630.8	20723
 631.4	20699
 631.9	20727
 632.4	20623
 632.9	20633
 633.5	20633
 634.0	20591
 634.5	20668
 635.1	20597
 635.6	20574
 636.1	20557
 636.7	20606
 637.2	20593
 637.7	20507
 638.3	20597
 638.8	20590
 639.3	20591
 639.8	20549
 640.4	20565
 640.9	20586
 641.4	20495
 642.0	20479
 642.5	20504
 643.0	20472
 643.6	20547
 644.1	20508
 644.6	20520
 645.1	20561
 645.7	20534
 646.2	20500
 646.7	20512
 647.3	20547
 647.8	20543
 648.3	20529
 648.9	20560
 649.4	20487
 649.9	20550
 650.4	20556
 651.0	20598
 651.5	20611
 652.0	20657
 652.6	20606
 653.1	20685
 653.6	20601
 654.1	20675
 654.7	20630
 655.2	20707
 655.7	20746
 656.3	20756
 656.8	20706
 657.3	20762
 657.8	20714
 658.4	20705
 658.9	20709
 659.4	20797
 659.9	20789
 660.5	20767
 661.0	20805
 661.5	20855
 662.1	20809
 662.6	20823
 663.1	20789
 663.6	20864
 664.2	20826
 664.7	20799
 665.2	20725
 665.7	20836
 666.3	20812
 666.8	20820
 667.3	20823
 667.8	20786
 668.4	20813
 668.9	20817
 669.4	20797
 669.9	20829
 670.5	20771
 671.0	20786
 671.5	20737
 672.0	20796
 672.6	20801
 673.1	20821
 673.6	20735
 674.1	20767
 674.7	20758
 675.2	20805
 675.7	20671
 676.2	20684
 676.8	20733
 677.3	20757
 677.8	20681
 678.3	20791
 678.9	20719
 679.4	20672
 679.9	20730
 680.4	20741
 681.0	20705
 681.5	20741
 682.0	20713
 682.5	20731
 683.1	20651
 683.6	20701
 684.1	20646
 684.6	20745
 685.1	20681
 685.7	20703
 686.2	20670
 686.7	20641
 687.2	20627
 687.8	20697
 688.3	20641
 688.8	20667
 689.3	20617
 689.8	20643
 690.4	20637
 690.9	20647
 691.4	20643
 691.9	20668
 692.4	20622
 693.0	20696
 693.5	20667
 694.0	20648
 694.5	20643
 695.1	20625
 695.6	20593
 696.1	20659
 696.6	20642
 697.1	20658
 697.7	20683
 698.2	20617
 698.7	20639
 699.2	20603
 699.7	20611
 700.3	20593
 700.8	20567
 701.3	20683
 701.8	20635
 702.3	20583
 702.8	20588
 703.4	20560
 703.9	20570
 704.4	20569
 704.9	20538
 705.4	20538
 706.0	20631
 706.5	20619
 707.0	20537
 707.5	20525
 708.0	20554
 708.5	20509
 709.1	20573
 709.6	20541
 710.1	20514
 710.6	20485
 711.1	20490
 711.7	20514
 712.2	20516
 712.7	20519
 713.2	20499
 713.7	20505
 714.2	20468
 714.8	20542
 715.3	20493
 715.8	20499
 716.3	20503
 716.8	20420
 717.3	20410
 717.8	20517
 718.4	20531
 718.9	20469
 719.4	20539
 719.9	20459
 720.4	20504
 720.9	20505
 721.4	20503
 722.0	20522
 722.5	20511
 723.0	20497
 723.5	20509
 724.0	20476
 724.5	20470
 725.0	20487
 725.6	20420
 726.1	20470
 726.6	20582
 727.1	20525
 727.6	20558
 728.1	20580
 728.6	20537
 729.1	20522
 729.7	20515
 730.2	20541
 730.7	20573
 731.2	20603
 731.7	20587
 732.2	20590
 732.7	20571
 733.2	20616
 733.8	20590
 734.3	20609
 734.8	20583
 735.3	20605
 735.8	20586
 736.3	20567
 736.8	20594
 737.3	20633
 737.8	20580
 738.4	20582
 738.9	20541
 739.4	20617
 739.9	20606
 740.4	20605
 740.9	20601
 741.4	20600
 741.9	20590
 742.4	20608
 742.9	20593
 743.4	20676
 744.0	20593
 744.5	20592
 745.0	20604
 745.5	20678
 746.0	20651
 746.5	20660
 747.0	20606
 747.5	20591
 748.0	20562
 748.5	20581
 749.0	20587
 749.5	20674
 750.0	20519
 750.5	20577
 751.1	20583
 751.6	20578
 752.1	20569
 752.6	20540
 753.1	20567
 753.6	20514
 754.1	20475
 754.6	20527
 755.1	20490
 755.6	20490
 756.1	20419
 756.6	20510
 757.1	20477
 757.6	20455
 758.1	20424
 758.6	20446
 759.1	20373
 759.6	20405
 760.1	20351
 760.7	20321
 761.2	20398
 761.7	20342
 762.2	20326
 762.7	20375
 763.2	20241
 763.7	20325
 764.2	20260
 764.7	20263
 765.2	20291
 765.7	20261
 766.2	20221
 766.7	20263
 767.2	20216
 767.7	20221
 768.2	20202
 768.7	20172
 769.2	20161
 769.7	20206
 770.2	20173
 770.7	20178
 771.2	20159
 771.7	20133
 772.2	20146
 772.7	20187
 773.2	20162
 773.7	20121
 774.2	20068
 774.7	20115
 775.2	20111
 775.7	20087
 776.2	20079
 776.7	20106
 777.2	20038
 777.7	20108
 778.2	20088
 778.7	20130
 779.2	20135
 779.7	20157
 780.2	20011
 780.7	20083
 781.2	20087
 781.7	20145
 782.2	20074
 782.6	20149
 783.1	20149
 783.6	20114
 784.1	20083
 784.6	20075
 785.1	20088
 785.6	20073
 786.1	20111
 786.6	20123
 787.1	20069
 787.6	20067
 788.1	20062
 788.6	20054
 789.1	20045
 789.6	20087
 790.1	20093
 790.6	20098
 791.1	20010
 791.6	20008
 792.0	20030
 792.5	20064
 793.0	20052
 793.5	20042
 794.0	19978
 794.5	20066
 795.0	20047
 795.5	20024
 796.0	20030
 796.5	19983
 797.0	20009
 797.5	20047
 798.0	19906
 798.4	19949
 798.9	19935
 799.4	19950
 799.9	19951
 800.4	19824
 800.9	19916
 801.4	19979
 801.9	19932
 802.4	19873
 802.9	19932
 803.3	19922
 803.8	19888
 804.3	19839
 804.8	19895
 805.3	19848
 805.8	19835
 806.3	19835
 806.8	19812
 807.2	19801
 807.7	19776
 808.2	19803
 808.7	19731
 809.2	19735
 809.7	19677
 810.2	19732
 810.7	19673
 811.1	19689
 811.6	19681
 812.1	19643
 812.6	19607
 813.1	19649
 813.6	19663
 814.1	19642
 814.5	19603
 815.0	19617
 815.5	19578
 816.0	19536
 816.5	19600
 817.0	19550
 817.4	19529
 817.9	19566
 818.4	19503
 818.9	19571
 819.4	19534
 819.9	19514
 820.3	19485
 820.8	19483
 821.3	19483
 821.8	19489
 822.3	19445
 822.7	19431
 823.2	19481
 823.7	19435
 824.2	19437
 824.7	19416
 825.2	19433
 825.6	19418
 826.1	19407
 826.6	19455
 827.1	19438
 827.6	19439
 828.0	19376
 828.5	19348
 829.0	19384
 829.5	19333
 829.9	19338
 830.4	19379
 830.9	19376
 831.4	19397
 831.9	19357
 832.3	19434
 832.8	19382
 833.3	19372
 833.8	19453
 834.2	19445
 834.7	19298
 835.2	19385
 835.7	19385
 836.1	19379
 836.6	19359
 837.1	19369
 837.6	19377
 838.0	19405
 838.5	19429
 839.0	19429
 839.5	19419
 839.9	19348
 840.4	19347
 840.9	19316
 841.4	19359
 841.8	19368
 842.3	19383
 842.8	19408
 843.3	19396
 843.7	19305
 844.2	19299
 844.7	19383
 845.1	19355
 845.6	19275
 846.1	19295
 846.6	19331
 847.0	19230
 847.5	19279
 848.0	19264
 848.4	19299
 848.9	19271
 849.4	19256
 849.8	19275
 850.3	19268
 850.8	19316
 851.3	19281
 851.7	19276
 852.2	19279
 852.7	19272
 853.1	19250
 853.6	19200
 854.1	19244
 854.5	19211
 855.0	19195
 855.5	19189
 855.9	19254
 856.4	19240
 856.9	19149
 857.3	19205
 857.8	19186
 858.3	19223
 858.7	19175
 859.2	19188
 859.7	19184
 860.1	19241
 860.6	19218
 861.1	19164
 861.5	19203
 862.0	19215
 862.4	19178
 862.9	19143
 863.4	19188
 863.8	19195
 864.3	19185
 864.8	19102
 865.2	19156
 865.7	19183
 866.1	19189
 866.6	19108
 867.1	19187
 867.5	19170
 868.0	19149
 868.5	19096
 868.9	19106
 869.4	19201
 869.8	19149
 870.3	19110
 870.8	19169
 871.2	19127
 871.7	19118
 872.1	19062
 872.6	19113
 873.0	19097
 873.5	19171
 874.0	19162
 874.4	19050
 874.9	19088
 875.3	19052
 875.8	18968
 876.2	18782
 876.7	18649
 877.2	18340
 877.6	17959
 878.1	17588
