#xlabel Wavelength (nm)
#ylabel Spectrometer Array Counts
#title Exposure time is 11000 ms
## lambda	counts
 349.8	18808
 350.3	19111
 350.8	19379
 351.3	19575
 351.9	19664
 352.4	19759
 352.9	19811
 353.4	19753
 354.0	19742
 354.5	19787
 355.0	19784
 355.5	19796
 356.0	19754
 356.6	19715
 357.1	19772
 357.6	19743
 358.1	19774
 358.7	19705
 359.2	19720
 359.7	19735
 360.2	19777
 360.8	19743
 361.3	19833
 361.8	19770
 362.3	19801
 362.9	19754
 363.4	19826
 363.9	19826
 364.4	19852
 364.9	19752
 365.5	19822
 366.0	19803
 366.5	19753
 367.0	19798
 367.6	19825
 368.1	19821
 368.6	19750
 369.1	19811
 369.7	19851
 370.2	19766
 370.7	19765
 371.2	19807
 371.8	19862
 372.3	19777
 372.8	19852
 373.3	19862
 373.9	19791
 374.4	19814
 374.9	19860
 375.5	19736
 376.0	19868
 376.5	19819
 377.0	19840
 377.6	19784
 378.1	19857
 378.6	19781
 379.1	19775
 379.7	19754
 380.2	19822
 380.7	19821
 381.2	19773
 381.8	19756
 382.3	19793
 382.8	19773
 383.4	19815
 383.9	19755
 384.4	19915
 384.9	19810
 385.5	19821
 386.0	19822
 386.5	19897
 387.1	19814
 387.6	19839
 388.1	19833
 388.6	19843
 389.2	19825
 389.7	19843
 390.2	19811
 390.8	19898
 391.3	19861
 391.8	19842
 392.3	19820
 392.9	19803
 393.4	19786
 393.9	19851
 394.5	19843
 395.0	19781
 395.5	19797
 396.0	19788
 396.6	19745
 397.1	19844
 397.6	19838
 398.2	19830
 398.7	19826
 399.2	19919
 399.8	19780
 400.3	19842
 400.8	19895
 401.3	19850
 401.9	19865
 402.4	19878
 402.9	19862
 403.5	19880
 404.0	19863
 404.5	19799
 405.1	19795
 405.6	19887
 406.1	19851
 406.7	19850
 407.2	19847
 407.7	19925
 408.2	19908
 408.8	19893
 409.3	19914
 409.8	19959
 410.4	19901
 410.9	19897
 411.4	19831
 412.0	19892
 412.5	19937
 413.0	19878
 413.6	19917
 414.1	19860
 414.6	19891
 415.2	19929
 415.7	19851
 416.2	19899
 416.8	19870
 417.3	19844
 417.8	19861
 418.4	19940
 418.9	19865
 419.4	20002
 420.0	19875
 420.5	19932
 421.0	19866
 421.5	19950
 422.1	19914
 422.6	19961
 423.1	19983
 423.7	19941
 424.2	19918
 424.7	19947
 425.3	19922
 425.8	19935
 426.3	19911
 426.9	19970
 427.4	19902
 427.9	20011
 428.5	19937
 429.0	19970
 429.6	19914
 430.1	19987
 430.6	19965
 431.2	19891
 431.7	19982
 432.2	19933
 432.8	19893
 433.3	19991
 433.8	19978
 434.4	19930
 434.9	19937
 435.4	19973
 436.0	19937
 436.5	19916
 437.0	19994
 437.6	19954
 438.1	20002
 438.6	19999
 439.2	20023
 439.7	20007
 440.2	19942
 440.8	19968
 441.3	19969
 441.8	19969
 442.4	19934
 442.9	19961
 443.5	20001
 444.0	19989
 444.5	20012
 445.1	19914
 445.6	19946
 446.1	19964
 446.7	19972
 447.2	19978
 447.7	19956
 448.3	20016
 448.8	19965
 449.3	19995
 449.9	19919
 450.4	19999
 450.9	20023
 451.5	20007
 452.0	19959
 452.6	19961
 453.1	20002
 453.6	19997
 454.2	19867
 454.7	19926
 455.2	19940
 455.8	19974
 456.3	19904
 456.8	20025
 457.4	19939
 457.9	19937
 458.5	19983
 459.0	19938
 459.5	19975
 460.1	19915
 460.6	19966
 461.1	19951
 461.7	19995
 462.2	19941
 462.7	19983
 463.3	19903
 463.8	19980
 464.4	20048
 464.9	19984
 465.4	20043
 466.0	19931
 466.5	20004
 467.0	19923
 467.6	19987
 468.1	20067
 468.7	19983
 469.2	19900
 469.7	19990
 470.3	19949
 470.8	19982
 471.3	19944
 471.9	19891
 472.4	19935
 473.0	19968
 473.5	19975
 474.0	19956
 474.6	19951
 475.1	19935
 475.6	19999
 476.2	20002
 476.7	19968
 477.3	20026
 477.8	19952
 478.3	19864
 478.9	20073
 479.4	19942
 479.9	19947
 480.5	19919
 481.0	19932
 481.6	19949
 482.1	20003
 482.6	19970
 483.2	19968
 483.7	20085
 484.2	20001
 484.8	19806
 485.3	19910
 485.9	19981
 486.4	19932
 486.9	19941
 487.5	19894
 488.0	19891
 488.6	19943
 489.1	19940
 489.6	19996
 490.2	19977
 490.7	19930
 491.2	19896
 491.8	19947
 492.3	19894
 492.9	19941
 493.4	19954
 493.9	19967
 494.5	19963
 495.0	20039
 495.6	19946
 496.1	19965
 496.6	20025
 497.2	19939
 497.7	19905
 498.2	20001
 498.8	20023
 499.3	19929
 499.9	19981
 500.4	19979
 500.9	19953
 501.5	19937
 502.0	19997
 502.6	19968
 503.1	20045
 503.6	19997
 504.2	19934
 504.7	19924
 505.2	19981
 505.8	19953
 506.3	20022
 506.9	20012
 507.4	19953
 507.9	19914
 508.5	19933
 509.0	19949
 509.6	20004
 510.1	19949
 510.6	19975
 511.2	19980
 511.7	19951
 512.2	20005
 512.8	20012
 513.3	19958
 513.9	19941
 514.4	19990
 514.9	20061
 515.5	19951
 516.0	20025
 516.6	19995
 517.1	20048
 517.6	20030
 518.2	20009
 518.7	19939
 519.3	20007
 519.8	20056
 520.3	20062
 520.9	20017
 521.4	20026
 521.9	20095
 522.5	20023
 523.0	20054
 523.6	20097
 524.1	19939
 524.6	19997
 525.2	20026
 525.7	20057
 526.3	19969
 526.8	20063
 527.3	20001
 527.9	20017
 528.4	19991
 528.9	20042
 529.5	20057
 530.0	20022
 530.6	20059
 531.1	20053
 531.6	19945
 532.2	20059
 532.7	19993
 533.3	20017
 533.8	20134
 534.3	20143
 534.9	20128
 535.4	20050
 536.0	20114
 536.5	20137
 537.0	20081
 537.6	20092
 538.1	20127
 538.6	20135
 539.2	20058
 539.7	20060
 540.3	20158
 540.8	20114
 541.3	20059
 541.9	20088
 542.4	20081
 543.0	20141
 543.5	20102
 544.0	20077
 544.6	20127
 545.1	20132
 545.6	20173
 546.2	20153
 546.7	20061
 547.3	20125
 547.8	20105
 548.3	20151
 548.9	20067
 549.4	20071
 550.0	20045
 550.5	20114
 551.0	20165
 551.6	20108
 552.1	20127
 552.6	20126
 553.2	20105
 553.7	20076
 554.3	20116
 554.8	20187
 555.3	20034
 555.9	20107
 556.4	20059
 556.9	20150
 557.5	20171
 558.0	20124
 558.6	20088
 559.1	20162
 559.6	20131
 560.2	20126
 560.7	20115
 561.3	20083
 561.8	20047
 562.3	20169
 562.9	20142
 563.4	20169
 563.9	20154
 564.5	20155
 565.0	20126
 565.6	20148
 566.1	20147
 566.6	20149
 567.2	20129
 567.7	20237
 568.2	20132
 568.8	20147
 569.3	20109
 569.9	20186
 570.4	20166
 570.9	20138
 571.5	20125
 572.0	20111
 572.5	20163
 573.1	20109
 573.6	20155
 574.1	20141
 574.7	20129
 575.2	20094
 575.8	20129
 576.3	20199
 576.8	20155
 577.4	20157
 577.9	20167
 578.4	20111
 579.0	20110
 579.5	20210
 580.1	20121
 580.6	20115
 581.1	20188
 581.7	20191
 582.2	20120
 582.7	20157
 583.3	20193
 583.8	20156
 584.3	20096
 584.9	20152
 585.4	20144
 586.0	20108
 586.5	20136
 587.0	20084
 587.6	20165
 588.1	20105
 588.6	20183
 589.2	20112
 589.7	20125
 590.2	20117
 590.8	20116
 591.3	20142
 591.9	20082
 592.4	20155
 592.9	20093
 593.5	20086
 594.0	20079
 594.5	20106
 595.1	20091
 595.6	20082
 596.1	20145
 596.7	20115
 597.2	20165
 597.7	20105
 598.3	20114
 598.8	20094
 599.3	20115
 599.9	20097
 600.4	20095
 601.0	20112
 601.5	20103
 602.0	20095
 602.6	20042
 603.1	20059
 603.6	20059
 604.2	20165
 604.7	20056
 605.2	20132
 605.8	20035
 606.3	20060
 606.8	20133
 607.4	20093
 607.9	20129
 608.4	20061
 609.0	20090
 609.5	20130
 610.0	20093
 610.6	20187
 611.1	20081
 611.6	20098
 612.2	20093
 612.7	20144
 613.2	20117
 613.8	20027
 614.3	20051
 614.8	20097
 615.4	20009
 615.9	20082
 616.4	20126
 617.0	20053
 617.5	20146
 618.0	20140
 618.6	20035
 619.1	20051
 619.6	20117
 620.2	20088
 620.7	20127
 621.2	20073
 621.8	20101
 622.3	20109
 622.8	20050
 623.4	20066
 623.9	20118
 624.4	20081
 625.0	20069
 625.5	20076
 626.0	20081
 626.6	20129
 627.1	20120
 627.6	20067
 628.2	20035
 628.7	20067
 629.2	20050
 629.8	20085
 630.3	20111
 630.8	20098
 631.4	20089
 631.9	20121
 632.4	20018
 632.9	20058
 633.5	20065
 634.0	20033
 634.5	20141
 635.1	20076
 635.6	20058
 636.1	20048
 636.7	20126
 637.2	20126
 637.7	20047
 638.3	20157
 638.8	20154
 639.3	20178
 639.8	20133
 640.4	20166
 640.9	20191
 641.4	20103
 642.0	20099
 642.5	20124
 643.0	20093
 643.6	20187
 644.1	20145
 644.6	20156
 645.1	20196
 645.7	20175
 646.2	20137
 646.7	20153
 647.3	20176
 647.8	20181
 648.3	20153
 648.9	20181
 649.4	20088
 649.9	20151
 650.4	20155
 651.0	20193
 651.5	20195
 652.0	20242
 652.6	20169
 653.1	20247
 653.6	20145
 654.1	20224
 654.7	20158
 655.2	20231
 655.7	20261
 656.3	20273
 656.8	20199
 657.3	20246
 657.8	20188
 658.4	20165
 658.9	20163
 659.4	20252
 659.9	20232
 660.5	20198
 661.0	20251
 661.5	20287
 662.1	20235
 662.6	20242
 663.1	20197
 663.6	20286
 664.2	20237
 664.7	20201
 665.2	20118
 665.7	20250
 666.3	20218
 666.8	20233
 667.3	20235
 667.8	20196
 668.4	20229
 668.9	20239
 669.4	20224
 669.9	20266
 670.5	20200
 671.0	20221
 671.5	20180
 672.0	20250
 672.6	20259
 673.1	20287
 673.6	20197
 674.1	20243
 674.7	20234
 675.2	20297
 675.7	20152
 676.2	20170
 676.8	20226
 677.3	20255
 677.8	20177
 678.3	20306
 678.9	20240
 679.4	20188
 679.9	20263
 680.4	20273
 681.0	20235
 681.5	20285
 682.0	20259
 682.5	20287
 683.1	20195
 683.6	20263
 684.1	20203
 684.6	20315
 685.1	20251
 685.7	20279
 686.2	20243
 686.7	20208
 687.2	20200
 687.8	20283
 688.3	20214
 688.8	20249
 689.3	20187
 689.8	20222
 690.4	20217
 690.9	20222
 691.4	20219
 691.9	20259
 692.4	20206
 693.0	20282
 693.5	20249
 694.0	20235
 694.5	20227
 695.1	20201
 695.6	20167
 696.1	20239
 696.6	20222
 697.1	20241
 697.7	20267
 698.2	20202
 698.7	20228
 699.2	20183
 699.7	20191
 700.3	20177
 700.8	20159
 701.3	20277
 701.8	20237
 702.3	20183
 702.8	20195
 703.4	20162
 703.9	20186
 704.4	20193
 704.9	20151
 705.4	20166
 706.0	20282
 706.5	20273
 707.0	20193
 707.5	20179
 708.0	20223
 708.5	20177
 709.1	20259
 709.6	20221
 710.1	20195
 710.6	20179
 711.1	20189
 711.7	20222
 712.2	20230
 712.7	20241
 713.2	20229
 713.7	20233
 714.2	20197
 714.8	20289
 715.3	20235
 715.8	20244
 716.3	20261
 716.8	20162
 717.3	20147
 717.8	20268
 718.4	20277
 718.9	20214
 719.4	20300
 719.9	20206
 720.4	20248
 720.9	20257
 721.4	20255
 722.0	20274
 722.5	20253
 723.0	20240
 723.5	20247
 724.0	20207
 724.5	20203
 725.0	20214
 725.6	20142
 726.1	20191
 726.6	20311
 727.1	20249
 727.6	20285
 728.1	20303
 728.6	20254
 729.1	20243
 729.7	20231
 730.2	20258
 730.7	20297
 731.2	20317
 731.7	20307
 732.2	20315
 732.7	20297
 733.2	20347
 733.8	20315
 734.3	20332
 734.8	20290
 735.3	20315
 735.8	20291
 736.3	20258
 736.8	20293
 737.3	20325
 737.8	20273
 738.4	20265
 738.9	20207
 739.4	20299
 739.9	20286
 740.4	20280
 740.9	20271
 741.4	20273
 741.9	20265
 742.4	20285
 742.9	20263
 743.4	20366
 744.0	20281
 744.5	20285
 745.0	20296
 745.5	20386
 746.0	20361
 746.5	20371
 747.0	20316
 747.5	20302
 748.0	20281
 748.5	20302
 749.0	20324
 749.5	20422
 750.0	20255
 750.5	20329
 751.1	20341
 751.6	20346
 752.1	20341
 752.6	20318
 753.1	20358
 753.6	20295
 754.1	20273
 754.6	20333
 755.1	20292
 755.6	20315
 756.1	20233
 756.6	20356
 757.1	20324
 757.6	20317
 758.1	20294
 758.6	20323
 759.1	20255
 759.6	20307
 760.1	20262
 760.7	20240
 761.2	20329
 761.7	20268
 762.2	20273
 762.7	20337
 763.2	20185
 763.7	20301
 764.2	20244
 764.7	20253
 765.2	20300
 765.7	20284
 766.2	20249
 766.7	20315
 767.2	20277
 767.7	20293
 768.2	20279
 768.7	20256
 769.2	20265
 769.7	20322
 770.2	20299
 770.7	20304
 771.2	20297
 771.7	20274
 772.2	20296
 772.7	20348
 773.2	20335
 773.7	20294
 774.2	20245
 774.7	20303
 775.2	20298
 775.7	20281
 776.2	20285
 776.7	20317
 777.2	20237
 777.7	20330
 778.2	20318
 778.7	20360
 779.2	20376
 779.7	20412
 780.2	20247
 780.7	20324
 781.2	20331
 781.7	20415
 782.2	20333
 782.6	20416
 783.1	20427
 783.6	20390
 784.1	20366
 784.6	20351
 785.1	20363
 785.6	20356
 786.1	20396
 786.6	20418
 787.1	20359
 787.6	20371
 788.1	20370
 788.6	20353
 789.1	20357
 789.6	20406
 790.1	20421
 790.6	20431
 791.1	20337
 791.6	20351
 792.0	20378
 792.5	20425
 793.0	20411
 793.5	20414
 794.0	20360
 794.5	20461
 795.0	20451
 795.5	20423
 796.0	20447
 796.5	20409
 797.0	20439
 797.5	20495
 798.0	20355
 798.4	20411
 798.9	20401
 799.4	20432
 799.9	20453
 800.4	20320
 800.9	20433
 801.4	20522
 801.9	20491
 802.4	20426
 802.9	20509
 803.3	20518
 803.8	20493
 804.3	20447
 804.8	20530
 805.3	20491
 805.8	20491
 806.3	20504
 806.8	20495
 807.2	20506
 807.7	20488
 808.2	20527
 808.7	20454
 809.2	20473
 809.7	20422
 810.2	20501
 810.7	20443
 811.1	20475
 811.6	20493
 812.1	20453
 812.6	20423
 813.1	20485
 813.6	20513
 814.1	20496
 814.5	20463
 815.0	20497
 815.5	20468
 816.0	20425
 816.5	20504
 817.0	20463
 817.4	20459
 817.9	20499
 818.4	20437
 818.9	20532
 819.4	20491
 819.9	20478
 820.3	20452
 820.8	20462
 821.3	20474
 821.8	20506
 822.3	20440
 822.7	20429
 823.2	20501
 823.7	20458
 824.2	20467
 824.7	20445
 825.2	20478
 825.6	20458
 826.1	20457
 826.6	20516
 827.1	20509
 827.6	20502
 828.0	20442
 828.5	20421
 829.0	20466
 829.5	20418
 829.9	20424
 830.4	20493
 830.9	20477
 831.4	20513
 831.9	20467
 832.3	20551
 832.8	20498
 833.3	20501
 833.8	20584
 834.2	20582
 834.7	20419
 835.2	20524
 835.7	20530
 836.1	20523
 836.6	20510
 837.1	20519
 837.6	20528
 838.0	20573
 838.5	20603
 839.0	20605
 839.5	20592
 839.9	20514
 840.4	20531
 840.9	20497
 841.4	20539
 841.8	20573
 842.3	20587
 842.8	20610
 843.3	20614
 843.7	20510
 844.2	20500
 844.7	20597
 845.1	20563
 845.6	20490
 846.1	20517
 846.6	20552
 847.0	20447
 847.5	20510
 848.0	20501
 848.4	20545
 848.9	20508
 849.4	20497
 849.8	20525
 850.3	20528
 850.8	20579
 851.3	20537
 851.7	20544
 852.2	20555
 852.7	20549
 853.1	20529
 853.6	20487
 854.1	20532
 854.5	20499
 855.0	20489
 855.5	20484
 855.9	20563
 856.4	20555
 856.9	20466
 857.3	20533
 857.8	20515
 858.3	20559
 858.7	20523
 859.2	20537
 859.7	20530
 860.1	20593
 860.6	20575
 861.1	20515
 861.5	20567
 862.0	20583
 862.4	20563
 862.9	20529
 863.4	20569
 863.8	20573
 864.3	20583
 864.8	20506
 865.2	20557
 865.7	20591
 866.1	20606
 866.6	20529
 867.1	20609
 867.5	20595
 868.0	20575
 868.5	20537
 868.9	20540
 869.4	20654
 869.8	20608
 870.3	20569
 870.8	20639
 871.2	20591
 871.7	20582
 872.1	20531
 872.6	20585
 873.0	20565
 873.5	20659
 874.0	20661
 874.4	20570
 874.9	20642
 875.3	20648
 875.8	20603
 876.2	20450
 876.7	20341
 877.2	20009
 877.6	19557
 878.1	19088
