#xlabel Wavelength (nm)
#ylabel Spectrometer Array Counts
#title Exposure time is 11000 ms
## lambda	counts
 349.8	18789
 350.3	19095
 350.8	19368
 351.3	19567
 351.9	19667
 352.4	19767
 352.9	19824
 353.4	19767
 354.0	19761
 354.5	19799
 355.0	19800
 355.5	19811
 356.0	19771
 356.6	19735
 357.1	19782
 357.6	19753
 358.1	19783
 358.7	19722
 359.2	19729
 359.7	19747
 360.2	19789
 360.8	19751
 361.3	19839
 361.8	19780
 362.3	19807
 362.9	19761
 363.4	19836
 363.9	19832
 364.4	19861
 364.9	19759
 365.5	19836
 366.0	19813
 366.5	19761
 367.0	19806
 367.6	19829
 368.1	19827
 368.6	19755
 369.1	19812
 369.7	19860
 370.2	19773
 370.7	19774
 371.2	19813
 371.8	19867
 372.3	19778
 372.8	19859
 373.3	19867
 373.9	19801
 374.4	19817
 374.9	19865
 375.5	19740
 376.0	19865
 376.5	19823
 377.0	19847
 377.6	19790
 378.1	19859
 378.6	19784
 379.1	19786
 379.7	19759
 380.2	19834
 380.7	19827
 381.2	19778
 381.8	19763
 382.3	19801
 382.8	19773
 383.4	19820
 383.9	19763
 384.4	19921
 384.9	19821
 385.5	19830
 386.0	19830
 386.5	19903
 387.1	19819
 387.6	19843
 388.1	19839
 388.6	19851
 389.2	19829
 389.7	19846
 390.2	19819
 390.8	19904
 391.3	19863
 391.8	19846
 392.3	19819
 392.9	19813
 393.4	19791
 393.9	19855
 394.5	19846
 395.0	19789
 395.5	19799
 396.0	19796
 396.6	19755
 397.1	19844
 397.6	19838
 398.2	19831
 398.7	19827
 399.2	19923
 399.8	19783
 400.3	19851
 400.8	19898
 401.3	19858
 401.9	19874
 402.4	19887
 402.9	19865
 403.5	19891
 404.0	19871
 404.5	19807
 405.1	19805
 405.6	19892
 406.1	19861
 406.7	19853
 407.2	19851
 407.7	19927
 408.2	19910
 408.8	19903
 409.3	19922
 409.8	19959
 410.4	19904
 410.9	19903
 411.4	19839
 412.0	19897
 412.5	19943
 413.0	19879
 413.6	19916
 414.1	19869
 414.6	19891
 415.2	19928
 415.7	19853
 416.2	19900
 416.8	19877
 417.3	19857
 417.8	19869
 418.4	19949
 418.9	19870
 419.4	20008
 420.0	19877
 420.5	19937
 421.0	19877
 421.5	19954
 422.1	19923
 422.6	19971
 423.1	19990
 423.7	19944
 424.2	19927
 424.7	19957
 425.3	19923
 425.8	19939
 426.3	19914
 426.9	19973
 427.4	19901
 427.9	20016
 428.5	19943
 429.0	19972
 429.6	19917
 430.1	19992
 430.6	19976
 431.2	19895
 431.7	19988
 432.2	19935
 432.8	19897
 433.3	19997
 433.8	19981
 434.4	19938
 434.9	19944
 435.4	19980
 436.0	19943
 436.5	19923
 437.0	19994
 437.6	19956
 438.1	20009
 438.6	20003
 439.2	20031
 439.7	20007
 440.2	19946
 440.8	19975
 441.3	19972
 441.8	19978
 442.4	19939
 442.9	19971
 443.5	20005
 444.0	19995
 444.5	20021
 445.1	19921
 445.6	19951
 446.1	19971
 446.7	19982
 447.2	19990
 447.7	19963
 448.3	20023
 448.8	19969
 449.3	19995
 449.9	19927
 450.4	20005
 450.9	20027
 451.5	20017
 452.0	19966
 452.6	19969
 453.1	20005
 453.6	20004
 454.2	19874
 454.7	19931
 455.2	19942
 455.8	19979
 456.3	19904
 456.8	20033
 457.4	19945
 457.9	19945
 458.5	19987
 459.0	19940
 459.5	19975
 460.1	19924
 460.6	19972
 461.1	19955
 461.7	20002
 462.2	19949
 462.7	19993
 463.3	19906
 463.8	19983
 464.4	20050
 464.9	19984
 465.4	20049
 466.0	19935
 466.5	20006
 467.0	19922
 467.6	19990
 468.1	20074
 468.7	19988
 469.2	19907
 469.7	19997
 470.3	19952
 470.8	19989
 471.3	19950
 471.9	19893
 472.4	19945
 473.0	19977
 473.5	19983
 474.0	19961
 474.6	19959
 475.1	19945
 475.6	20006
 476.2	20007
 476.7	19975
 477.3	20026
 477.8	19958
 478.3	19871
 478.9	20081
 479.4	19947
 479.9	19948
 480.5	19923
 481.0	19934
 481.6	19951
 482.1	20006
 482.6	19974
 483.2	19973
 483.7	20083
 484.2	20004
 484.8	19821
 485.3	19918
 485.9	19984
 486.4	19939
 486.9	19944
 487.5	19901
 488.0	19897
 488.6	19947
 489.1	19947
 489.6	20002
 490.2	19988
 490.7	19932
 491.2	19900
 491.8	19955
 492.3	19898
 492.9	19943
 493.4	19953
 493.9	19965
 494.5	19969
 495.0	20043
 495.6	19954
 496.1	19972
 496.6	20031
 497.2	19941
 497.7	19903
 498.2	19999
 498.8	20029
 499.3	19934
 499.9	19986
 500.4	19981
 500.9	19959
 501.5	19942
 502.0	20010
 502.6	19979
 503.1	20055
 503.6	20004
 504.2	19941
 504.7	19933
 505.2	19983
 505.8	19958
 506.3	20025
 506.9	20015
 507.4	19958
 507.9	19919
 508.5	19932
 509.0	19955
 509.6	20004
 510.1	19955
 510.6	19977
 511.2	19983
 511.7	19954
 512.2	20007
 512.8	20021
 513.3	19966
 513.9	19936
 514.4	19994
 514.9	20068
 515.5	19951
 516.0	20032
 516.6	19999
 517.1	20051
 517.6	20034
 518.2	20011
 518.7	19948
 519.3	20013
 519.8	20068
 520.3	20070
 520.9	20025
 521.4	20039
 521.9	20102
 522.5	20024
 523.0	20055
 523.6	20101
 524.1	19941
 524.6	20006
 525.2	20031
 525.7	20063
 526.3	19971
 526.8	20069
 527.3	20011
 527.9	20028
 528.4	19999
 528.9	20048
 529.5	20060
 530.0	20027
 530.6	20064
 531.1	20055
 531.6	19953
 532.2	20064
 532.7	20001
 533.3	20022
 533.8	20135
 534.3	20153
 534.9	20134
 535.4	20051
 536.0	20116
 536.5	20142
 537.0	20091
 537.6	20095
 538.1	20135
 538.6	20142
 539.2	20064
 539.7	20065
 540.3	20163
 540.8	20115
 541.3	20065
 541.9	20092
 542.4	20085
 543.0	20150
 543.5	20103
 544.0	20079
 544.6	20135
 545.1	20139
 545.6	20177
 546.2	20155
 546.7	20062
 547.3	20126
 547.8	20107
 548.3	20159
 548.9	20071
 549.4	20074
 550.0	20047
 550.5	20118
 551.0	20165
 551.6	20111
 552.1	20132
 552.6	20136
 553.2	20105
 553.7	20081
 554.3	20120
 554.8	20193
 555.3	20033
 555.9	20106
 556.4	20063
 556.9	20154
 557.5	20182
 558.0	20124
 558.6	20094
 559.1	20166
 559.6	20138
 560.2	20132
 560.7	20122
 561.3	20090
 561.8	20060
 562.3	20174
 562.9	20146
 563.4	20172
 563.9	20160
 564.5	20155
 565.0	20131
 565.6	20154
 566.1	20151
 566.6	20151
 567.2	20132
 567.7	20239
 568.2	20135
 568.8	20151
 569.3	20113
 569.9	20186
 570.4	20175
 570.9	20144
 571.5	20131
 572.0	20120
 572.5	20175
 573.1	20111
 573.6	20163
 574.1	20149
 574.7	20135
 575.2	20101
 575.8	20135
 576.3	20202
 576.8	20158
 577.4	20161
 577.9	20171
 578.4	20115
 579.0	20114
 579.5	20215
 580.1	20126
 580.6	20122
 581.1	20187
 581.7	20201
 582.2	20123
 582.7	20163
 583.3	20197
 583.8	20165
 584.3	20096
 584.9	20157
 585.4	20148
 586.0	20115
 586.5	20141
 587.0	20089
 587.6	20167
 588.1	20110
 588.6	20185
 589.2	20116
 589.7	20134
 590.2	20119
 590.8	20118
 591.3	20142
 591.9	20085
 592.4	20153
 592.9	20093
 593.5	20083
 594.0	20084
 594.5	20108
 595.1	20098
 595.6	20086
 596.1	20149
 596.7	20113
 597.2	20167
 597.7	20109
 598.3	20120
 598.8	20094
 599.3	20121
 599.9	20101
 600.4	20101
 601.0	20113
 601.5	20101
 602.0	20099
 602.6	20047
 603.1	20062
 603.6	20058
 604.2	20173
 604.7	20061
 605.2	20138
 605.8	20043
 606.3	20059
 606.8	20135
 607.4	20097
 607.9	20126
 608.4	20060
 609.0	20095
 609.5	20134
 610.0	20097
 610.6	20191
 611.1	20085
 611.6	20103
 612.2	20090
 612.7	20147
 613.2	20125
 613.8	20038
 614.3	20055
 614.8	20103
 615.4	20011
 615.9	20084
 616.4	20127
 617.0	20063
 617.5	20149
 618.0	20143
 618.6	20042
 619.1	20059
 619.6	20126
 620.2	20091
 620.7	20131
 621.2	20077
 621.8	20103
 622.3	20117
 622.8	20049
 623.4	20071
 623.9	20123
 624.4	20086
 625.0	20078
 625.5	20075
 626.0	20089
 626.6	20129
 627.1	20126
 627.6	20067
 628.2	20032
 628.7	20069
 629.2	20057
 629.8	20093
 630.3	20111
 630.8	20095
 631.4	20092
 631.9	20129
 632.4	20031
 632.9	20061
 633.5	20072
 634.0	20033
 634.5	20144
 635.1	20079
 635.6	20061
 636.1	20052
 636.7	20131
 637.2	20130
 637.7	20043
 638.3	20159
 638.8	20161
 639.3	20183
 639.8	20142
 640.4	20169
 640.9	20192
 641.4	20101
 642.0	20099
 642.5	20127
 643.0	20099
 643.6	20197
 644.1	20149
 644.6	20157
 645.1	20202
 645.7	20179
 646.2	20139
 646.7	20154
 647.3	20179
 647.8	20183
 648.3	20161
 648.9	20186
 649.4	20090
 649.9	20156
 650.4	20161
 651.0	20196
 651.5	20201
 652.0	20253
 652.6	20183
 653.1	20251
 653.6	20145
 654.1	20234
 654.7	20157
 655.2	20237
 655.7	20267
 656.3	20271
 656.8	20201
 657.3	20251
 657.8	20196
 658.4	20167
 658.9	20169
 659.4	20258
 659.9	20237
 660.5	20210
 661.0	20251
 661.5	20292
 662.1	20239
 662.6	20249
 663.1	20203
 663.6	20287
 664.2	20241
 664.7	20205
 665.2	20127
 665.7	20255
 666.3	20227
 666.8	20235
 667.3	20241
 667.8	20198
 668.4	20234
 668.9	20244
 669.4	20235
 669.9	20269
 670.5	20208
 671.0	20225
 671.5	20175
 672.0	20255
 672.6	20259
 673.1	20290
 673.6	20204
 674.1	20248
 674.7	20242
 675.2	20302
 675.7	20159
 676.2	20177
 676.8	20229
 677.3	20260
 677.8	20180
 678.3	20307
 678.9	20243
 679.4	20196
 679.9	20265
 680.4	20276
 681.0	20235
 681.5	20287
 682.0	20262
 682.5	20291
 683.1	20200
 683.6	20268
 684.1	20206
 684.6	20318
 685.1	20247
 685.7	20285
 686.2	20250
 686.7	20215
 687.2	20207
 687.8	20285
 688.3	20221
 688.8	20257
 689.3	20190
 689.8	20226
 690.4	20225
 690.9	20233
 691.4	20228
 691.9	20265
 692.4	20214
 693.0	20289
 693.5	20253
 694.0	20241
 694.5	20230
 695.1	20201
 695.6	20167
 696.1	20241
 696.6	20226
 697.1	20244
 697.7	20270
 698.2	20202
 698.7	20233
 699.2	20190
 699.7	20194
 700.3	20181
 700.8	20159
 701.3	20285
 701.8	20242
 702.3	20189
 702.8	20197
 703.4	20165
 703.9	20192
 704.4	20194
 704.9	20161
 705.4	20170
 706.0	20285
 706.5	20282
 707.0	20190
 707.5	20185
 708.0	20225
 708.5	20181
 709.1	20259
 709.6	20225
 710.1	20198
 710.6	20183
 711.1	20198
 711.7	20229
 712.2	20237
 712.7	20250
 713.2	20229
 713.7	20239
 714.2	20199
 714.8	20293
 715.3	20241
 715.8	20253
 716.3	20261
 716.8	20165
 717.3	20153
 717.8	20271
 718.4	20282
 718.9	20219
 719.4	20305
 719.9	20203
 720.4	20257
 720.9	20258
 721.4	20258
 722.0	20277
 722.5	20260
 723.0	20246
 723.5	20254
 724.0	20211
 724.5	20205
 725.0	20217
 725.6	20149
 726.1	20192
 726.6	20318
 727.1	20254
 727.6	20292
 728.1	20310
 728.6	20267
 729.1	20251
 729.7	20233
 730.2	20264
 730.7	20303
 731.2	20323
 731.7	20310
 732.2	20321
 732.7	20300
 733.2	20345
 733.8	20323
 734.3	20335
 734.8	20297
 735.3	20317
 735.8	20299
 736.3	20265
 736.8	20291
 737.3	20327
 737.8	20278
 738.4	20271
 738.9	20208
 739.4	20305
 739.9	20286
 740.4	20286
 740.9	20277
 741.4	20275
 741.9	20269
 742.4	20289
 742.9	20269
 743.4	20371
 744.0	20282
 744.5	20281
 745.0	20302
 745.5	20387
 746.0	20371
 746.5	20374
 747.0	20319
 747.5	20313
 748.0	20287
 748.5	20304
 749.0	20327
 749.5	20427
 750.0	20259
 750.5	20335
 751.1	20349
 751.6	20355
 752.1	20352
 752.6	20325
 753.1	20363
 753.6	20302
 754.1	20277
 754.6	20337
 755.1	20298
 755.6	20317
 756.1	20242
 756.6	20362
 757.1	20327
 757.6	20321
 758.1	20298
 758.6	20327
 759.1	20261
 759.6	20309
 760.1	20269
 760.7	20240
 761.2	20328
 761.7	20281
 762.2	20271
 762.7	20342
 763.2	20193
 763.7	20307
 764.2	20245
 764.7	20254
 765.2	20307
 765.7	20286
 766.2	20255
 766.7	20318
 767.2	20273
 767.7	20297
 768.2	20287
 768.7	20264
 769.2	20270
 769.7	20328
 770.2	20303
 770.7	20307
 771.2	20300
 771.7	20276
 772.2	20298
 772.7	20353
 773.2	20342
 773.7	20298
 774.2	20251
 774.7	20309
 775.2	20305
 775.7	20289
 776.2	20287
 776.7	20318
 777.2	20247
 777.7	20332
 778.2	20323
 778.7	20365
 779.2	20377
 779.7	20412
 780.2	20254
 780.7	20327
 781.2	20337
 781.7	20423
 782.2	20340
 782.6	20415
 783.1	20435
 783.6	20397
 784.1	20367
 784.6	20361
 785.1	20371
 785.6	20361
 786.1	20404
 786.6	20425
 787.1	20363
 787.6	20376
 788.1	20375
 788.6	20361
 789.1	20360
 789.6	20411
 790.1	20433
 790.6	20434
 791.1	20342
 791.6	20358
 792.0	20385
 792.5	20433
 793.0	20419
 793.5	20425
 794.0	20361
 794.5	20465
 795.0	20461
 795.5	20434
 796.0	20454
 796.5	20415
 797.0	20445
 797.5	20501
 798.0	20354
 798.4	20411
 798.9	20404
 799.4	20436
 799.9	20456
 800.4	20327
 800.9	20437
 801.4	20526
 801.9	20498
 802.4	20432
 802.9	20514
 803.3	20522
 803.8	20503
 804.3	20457
 804.8	20533
 805.3	20497
 805.8	20499
 806.3	20510
 806.8	20500
 807.2	20515
 807.7	20486
 808.2	20530
 808.7	20457
 809.2	20477
 809.7	20424
 810.2	20498
 810.7	20455
 811.1	20483
 811.6	20496
 812.1	20459
 812.6	20432
 813.1	20493
 813.6	20521
 814.1	20503
 814.5	20467
 815.0	20505
 815.5	20471
 816.0	20434
 816.5	20511
 817.0	20469
 817.4	20463
 817.9	20509
 818.4	20441
 818.9	20542
 819.4	20494
 819.9	20485
 820.3	20456
 820.8	20470
 821.3	20475
 821.8	20515
 822.3	20446
 822.7	20429
 823.2	20505
 823.7	20461
 824.2	20473
 824.7	20453
 825.2	20479
 825.6	20463
 826.1	20463
 826.6	20525
 827.1	20517
 827.6	20504
 828.0	20445
 828.5	20429
 829.0	20475
 829.5	20417
 829.9	20427
 830.4	20494
 830.9	20485
 831.4	20511
 831.9	20472
 832.3	20560
 832.8	20505
 833.3	20503
 833.8	20591
 834.2	20582
 834.7	20425
 835.2	20528
 835.7	20533
 836.1	20533
 836.6	20519
 837.1	20525
 837.6	20537
 838.0	20583
 838.5	20614
 839.0	20612
 839.5	20604
 839.9	20521
 840.4	20532
 840.9	20501
 841.4	20546
 841.8	20577
 842.3	20589
 842.8	20615
 843.3	20619
 843.7	20513
 844.2	20503
 844.7	20597
 845.1	20575
 845.6	20491
 846.1	20522
 846.6	20553
 847.0	20455
 847.5	20514
 848.0	20501
 848.4	20547
 848.9	20514
 849.4	20505
 849.8	20531
 850.3	20532
 850.8	20585
 851.3	20553
 851.7	20552
 852.2	20559
 852.7	20554
 853.1	20534
 853.6	20494
 854.1	20538
 854.5	20505
 855.0	20497
 855.5	20494
 855.9	20565
 856.4	20562
 856.9	20471
 857.3	20544
 857.8	20522
 858.3	20570
 858.7	20530
 859.2	20549
 859.7	20542
 860.1	20602
 860.6	20581
 861.1	20525
 861.5	20578
 862.0	20595
 862.4	20572
 862.9	20533
 863.4	20573
 863.8	20587
 864.3	20593
 864.8	20507
 865.2	20566
 865.7	20594
 866.1	20614
 866.6	20528
 867.1	20619
 867.5	20607
 868.0	20589
 868.5	20545
 868.9	20550
 869.4	20669
 869.8	20623
 870.3	20580
 870.8	20655
 871.2	20605
 871.7	20600
 872.1	20549
 872.6	20607
 873.0	20585
 873.5	20679
 874.0	20682
 874.4	20594
 874.9	20661
 875.3	20658
 875.8	20610
 876.2	20441
 876.7	20321
 877.2	19975
 877.6	19534
 878.1	19073
