#xlabel Wavelength (nm)
#ylabel Spectrometer Array Counts
#title Exposure time is 11000 ms
## lambda	counts
 349.8	18926
 350.3	19213
 350.8	19483
 351.3	19706
 351.9	19837
 352.4	19972
 352.9	20053
 353.4	20025
 354.0	20034
 354.5	20079
 355.0	20080
 355.5	20092
 356.0	20047
 356.6	20013
 357.1	20065
 357.6	20035
 358.1	20068
 358.7	20011
 359.2	20021
 359.7	20047
 360.2	20091
 360.8	20061
 361.3	20160
 361.8	20109
 362.3	20138
 362.9	20094
 363.4	20185
 363.9	20186
 364.4	20219
 364.9	20123
 365.5	20205
 366.0	20189
 366.5	20143
 367.0	20193
 367.6	20224
 368.1	20236
 368.6	20163
 369.1	20234
 369.7	20285
 370.2	20207
 370.7	20218
 371.2	20262
 371.8	20326
 372.3	20243
 372.8	20333
 373.3	20353
 373.9	20295
 374.4	20323
 374.9	20376
 375.5	20265
 376.0	20405
 376.5	20368
 377.0	20407
 377.6	20358
 378.1	20443
 378.6	20383
 379.1	20391
 379.7	20383
 380.2	20469
 380.7	20476
 381.2	20435
 381.8	20435
 382.3	20481
 382.8	20467
 383.4	20523
 383.9	20472
 384.4	20641
 384.9	20546
 385.5	20571
 386.0	20572
 386.5	20649
 387.1	20579
 387.6	20610
 388.1	20613
 388.6	20639
 389.2	20635
 389.7	20663
 390.2	20655
 390.8	20760
 391.3	20739
 391.8	20747
 392.3	20744
 392.9	20755
 393.4	20759
 393.9	20838
 394.5	20854
 395.0	20818
 395.5	20845
 396.0	20861
 396.6	20836
 397.1	20942
 397.6	20946
 398.2	20947
 398.7	20953
 399.2	21052
 399.8	20929
 400.3	20999
 400.8	21052
 401.3	21021
 401.9	21043
 402.4	21065
 402.9	21066
 403.5	21104
 404.0	21102
 404.5	21058
 405.1	21077
 405.6	21194
 406.1	21177
 406.7	21193
 407.2	21219
 407.7	21318
 408.2	21327
 408.8	21339
 409.3	21387
 409.8	21444
 410.4	21419
 410.9	21442
 411.4	21394
 412.0	21476
 412.5	21543
 413.0	21497
 413.6	21554
 414.1	21531
 414.6	21564
 415.2	21624
 415.7	21571
 416.2	21623
 416.8	21624
 417.3	21625
 417.8	21654
 418.4	21757
 418.9	21701
 419.4	21857
 420.0	21743
 420.5	21821
 421.0	21767
 421.5	21866
 422.1	21851
 422.6	21917
 423.1	21955
 423.7	21927
 424.2	21915
 424.7	21964
 425.3	21951
 425.8	21981
 426.3	21963
 426.9	22043
 427.4	21991
 427.9	22114
 428.5	22065
 429.0	22125
 429.6	22091
 430.1	22197
 430.6	22217
 431.2	22181
 431.7	22309
 432.2	22297
 432.8	22299
 433.3	22439
 433.8	22471
 434.4	22463
 434.9	22506
 435.4	22580
 436.0	22581
 436.5	22596
 437.0	22690
 437.6	22674
 438.1	22743
 438.6	22765
 439.2	22794
 439.7	22790
 440.2	22734
 440.8	22770
 441.3	22777
 441.8	22777
 442.4	22747
 442.9	22777
 443.5	22815
 444.0	22811
 444.5	22844
 445.1	22750
 445.6	22796
 446.1	22840
 446.7	22868
 447.2	22902
 447.7	22904
 448.3	22999
 448.8	22993
 449.3	23063
 449.9	23037
 450.4	23178
 450.9	23251
 451.5	23292
 452.0	23301
 452.6	23352
 453.1	23459
 453.6	23504
 454.2	23427
 454.7	23531
 455.2	23595
 455.8	23667
 456.3	23631
 456.8	23778
 457.4	23731
 457.9	23747
 458.5	23805
 459.0	23774
 459.5	23823
 460.1	23779
 460.6	23831
 461.1	23819
 461.7	23868
 462.2	23821
 462.7	23859
 463.3	23789
 463.8	23859
 464.4	23940
 464.9	23887
 465.4	23971
 466.0	23882
 466.5	23973
 467.0	23916
 467.6	24007
 468.1	24114
 468.7	24077
 469.2	24030
 469.7	24153
 470.3	24157
 470.8	24228
 471.3	24225
 471.9	24217
 472.4	24305
 473.0	24368
 473.5	24417
 474.0	24429
 474.6	24467
 475.1	24493
 475.6	24587
 476.2	24618
 476.7	24613
 477.3	24691
 477.8	24658
 478.3	24599
 478.9	24833
 479.4	24738
 479.9	24774
 480.5	24790
 481.0	24840
 481.6	24875
 482.1	24978
 482.6	24975
 483.2	25031
 483.7	25155
 484.2	25129
 484.8	24989
 485.3	25111
 485.9	25207
 486.4	25199
 486.9	25247
 487.5	25223
 488.0	25259
 488.6	25339
 489.1	25373
 489.6	25444
 490.2	25459
 490.7	25431
 491.2	25407
 491.8	25481
 492.3	25436
 492.9	25499
 493.4	25512
 493.9	25537
 494.5	25531
 495.0	25591
 495.6	25510
 496.1	25520
 496.6	25565
 497.2	25483
 497.7	25457
 498.2	25534
 498.8	25550
 499.3	25470
 499.9	25523
 500.4	25531
 500.9	25523
 501.5	25539
 502.0	25637
 502.6	25635
 503.1	25755
 503.6	25746
 504.2	25742
 504.7	25791
 505.2	25897
 505.8	25923
 506.3	26071
 506.9	26135
 507.4	26159
 507.9	26191
 508.5	26283
 509.0	26386
 509.6	26523
 510.1	26535
 510.6	26625
 511.2	26703
 511.7	26745
 512.2	26855
 512.8	26923
 513.3	26929
 513.9	26945
 514.4	27034
 514.9	27141
 515.5	27047
 516.0	27137
 516.6	27094
 517.1	27139
 517.6	27109
 518.2	27074
 518.7	26991
 519.3	27033
 519.8	27031
 520.3	26999
 520.9	26931
 521.4	26917
 521.9	26951
 522.5	26838
 523.0	26828
 523.6	26851
 524.1	26687
 524.6	26729
 525.2	26749
 525.7	26793
 526.3	26729
 526.8	26832
 527.3	26793
 527.9	26838
 528.4	26839
 528.9	26926
 529.5	26977
 530.0	26995
 530.6	27090
 531.1	27138
 531.6	27097
 532.2	27262
 532.7	27283
 533.3	27379
 533.8	27556
 534.3	27653
 534.9	27712
 535.4	27729
 536.0	27855
 536.5	27949
 537.0	27981
 537.6	28052
 538.1	28151
 538.6	28223
 539.2	28208
 539.7	28274
 540.3	28403
 540.8	28405
 541.3	28394
 541.9	28453
 542.4	28463
 543.0	28551
 543.5	28519
 544.0	28499
 544.6	28544
 545.1	28562
 545.6	28584
 546.2	28569
 546.7	28462
 547.3	28528
 547.8	28498
 548.3	28535
 548.9	28435
 549.4	28425
 550.0	28389
 550.5	28446
 551.0	28477
 551.6	28419
 552.1	28430
 552.6	28436
 553.2	28378
 553.7	28364
 554.3	28398
 554.8	28472
 555.3	28324
 555.9	28399
 556.4	28386
 556.9	28505
 557.5	28535
 558.0	28515
 558.6	28513
 559.1	28594
 559.6	28599
 560.2	28633
 560.7	28661
 561.3	28656
 561.8	28655
 562.3	28800
 562.9	28799
 563.4	28862
 563.9	28864
 564.5	28896
 565.0	28899
 565.6	28936
 566.1	28945
 566.6	28962
 567.2	28957
 567.7	29068
 568.2	29006
 568.8	29011
 569.3	28999
 569.9	29066
 570.4	29047
 570.9	29039
 571.5	29042
 572.0	29045
 572.5	29111
 573.1	29067
 573.6	29141
 574.1	29142
 574.7	29153
 575.2	29151
 575.8	29212
 576.3	29308
 576.8	29291
 577.4	29328
 577.9	29366
 578.4	29365
 579.0	29401
 579.5	29534
 580.1	29484
 580.6	29534
 581.1	29639
 581.7	29692
 582.2	29666
 582.7	29729
 583.3	29791
 583.8	29794
 584.3	29767
 584.9	29842
 585.4	29870
 586.0	29867
 586.5	29929
 587.0	29921
 587.6	30011
 588.1	29982
 588.6	30056
 589.2	30013
 589.7	30040
 590.2	30041
 590.8	30027
 591.3	30056
 591.9	29995
 592.4	30037
 592.9	29961
 593.5	29935
 594.0	29908
 594.5	29915
 595.1	29859
 595.6	29800
 596.1	29839
 596.7	29785
 597.2	29806
 597.7	29717
 598.3	29706
 598.8	29660
 599.3	29639
 599.9	29569
 600.4	29553
 601.0	29542
 601.5	29517
 602.0	29489
 602.6	29442
 603.1	29454
 603.6	29460
 604.2	29555
 604.7	29477
 605.2	29551
 605.8	29471
 606.3	29516
 606.8	29595
 607.4	29603
 607.9	29665
 608.4	29633
 609.0	29699
 609.5	29767
 610.0	29763
 610.6	29887
 611.1	29835
 611.6	29912
 612.2	29945
 612.7	30033
 613.2	30070
 613.8	30041
 614.3	30113
 614.8	30196
 615.4	30187
 615.9	30327
 616.4	30431
 617.0	30427
 617.5	30561
 618.0	30640
 618.6	30637
 619.1	30734
 619.6	30853
 620.2	30933
 620.7	31068
 621.2	31099
 621.8	31187
 622.3	31272
 622.8	31298
 623.4	31374
 623.9	31475
 624.4	31478
 625.0	31504
 625.5	31517
 626.0	31544
 626.6	31610
 627.1	31594
 627.6	31541
 628.2	31505
 628.7	31553
 629.2	31527
 629.8	31535
 630.3	31522
 630.8	31481
 631.4	31425
 631.9	31413
 632.4	31266
 632.9	31241
 633.5	31203
 634.0	31123
 634.5	31139
 635.1	31043
 635.6	31001
 636.1	30935
 636.7	30918
 637.2	30882
 637.7	30741
 638.3	30813
 638.8	30763
 639.3	30750
 639.8	30649
 640.4	30650
 640.9	30650
 641.4	30543
 642.0	30510
 642.5	30501
 643.0	30464
 643.6	30543
 644.1	30494
 644.6	30505
 645.1	30514
 645.7	30519
 646.2	30468
 646.7	30499
 647.3	30525
 647.8	30555
 648.3	30529
 648.9	30583
 649.4	30507
 649.9	30588
 650.4	30628
 651.0	30695
 651.5	30731
 652.0	30807
 652.6	30782
 653.1	30893
 653.6	30831
 654.1	30917
 654.7	30912
 655.2	31028
 655.7	31086
 656.3	31130
 656.8	31116
 657.3	31194
 657.8	31175
 658.4	31207
 658.9	31255
 659.4	31340
 659.9	31360
 660.5	31355
 661.0	31413
 661.5	31467
 662.1	31443
 662.6	31463
 663.1	31437
 663.6	31543
 664.2	31485
 664.7	31469
 665.2	31409
 665.7	31522
 666.3	31482
 666.8	31480
 667.3	31482
 667.8	31447
 668.4	31460
 668.9	31459
 669.4	31427
 669.9	31445
 670.5	31367
 671.0	31375
 671.5	31322
 672.0	31350
 672.6	31330
 673.1	31364
 673.6	31259
 674.1	31270
 674.7	31250
 675.2	31279
 675.7	31139
 676.2	31115
 676.8	31175
 677.3	31163
 677.8	31076
 678.3	31164
 678.9	31086
 679.4	31006
 679.9	31070
 680.4	31048
 681.0	30999
 681.5	31023
 682.0	30964
 682.5	30997
 683.1	30886
 683.6	30920
 684.1	30853
 684.6	30953
 685.1	30891
 685.7	30903
 686.2	30877
 686.7	30833
 687.2	30822
 687.8	30873
 688.3	30823
 688.8	30840
 689.3	30779
 689.8	30813
 690.4	30797
 690.9	30811
 691.4	30834
 691.9	30839
 692.4	30823
 693.0	30886
 693.5	30848
 694.0	30843
 694.5	30837
 695.1	30818
 695.6	30781
 696.1	30851
 696.6	30838
 697.1	30861
 697.7	30883
 698.2	30812
 698.7	30839
 699.2	30804
 699.7	30808
 700.3	30763
 700.8	30739
 701.3	30824
 701.8	30777
 702.3	30724
 702.8	30717
 703.4	30699
 703.9	30673
 704.4	30634
 704.9	30596
 705.4	30582
 706.0	30641
 706.5	30607
 707.0	30510
 707.5	30479
 708.0	30484
 708.5	30415
 709.1	30459
 709.6	30400
 710.1	30330
 710.6	30291
 711.1	30252
 711.7	30248
 712.2	30210
 712.7	30194
 713.2	30127
 713.7	30103
 714.2	30021
 714.8	30079
 715.3	29987
 715.8	29945
 716.3	29925
 716.8	29818
 717.3	29777
 717.8	29861
 718.4	29848
 718.9	29766
 719.4	29847
 719.9	29741
 720.4	29782
 720.9	29805
 721.4	29800
 722.0	29834
 722.5	29828
 723.0	29836
 723.5	29867
 724.0	29841
 724.5	29846
 725.0	29898
 725.6	29853
 726.1	29931
 726.6	30053
 727.1	30008
 727.6	30068
 728.1	30105
 728.6	30071
 729.1	30086
 729.7	30082
 730.2	30123
 730.7	30158
 731.2	30202
 731.7	30207
 732.2	30233
 732.7	30213
 733.2	30268
 733.8	30241
 734.3	30276
 734.8	30269
 735.3	30313
 735.8	30317
 736.3	30314
 736.8	30374
 737.3	30437
 737.8	30396
 738.4	30404
 738.9	30365
 739.4	30461
 739.9	30455
 740.4	30493
 740.9	30461
 741.4	30470
 741.9	30471
 742.4	30488
 742.9	30476
 743.4	30553
 744.0	30463
 744.5	30456
 745.0	30456
 745.5	30526
 746.0	30487
 746.5	30494
 747.0	30427
 747.5	30396
 748.0	30369
 748.5	30382
 749.0	30378
 749.5	30449
 750.0	30276
 750.5	30314
 751.1	30288
 751.6	30278
 752.1	30241
 752.6	30189
 753.1	30219
 753.6	30132
 754.1	30087
 754.6	30101
 755.1	30035
 755.6	30019
 756.1	29916
 756.6	29989
 757.1	29935
 757.6	29892
 758.1	29831
 758.6	29805
 759.1	29700
 759.6	29718
 760.1	29645
 760.7	29569
 761.2	29623
 761.7	29551
 762.2	29505
 762.7	29513
 763.2	29370
 763.7	29422
 764.2	29325
 764.7	29291
 765.2	29292
 765.7	29218
 766.2	29154
 766.7	29160
 767.2	29068
 767.7	29043
 768.2	28999
 768.7	28935
 769.2	28894
 769.7	28909
 770.2	28854
 770.7	28835
 771.2	28781
 771.7	28738
 772.2	28730
 772.7	28747
 773.2	28713
 773.7	28648
 774.2	28582
 774.7	28603
 775.2	28560
 775.7	28535
 776.2	28502
 776.7	28520
 777.2	28439
 777.7	28489
 778.2	28456
 778.7	28490
 779.2	28479
 779.7	28507
 780.2	28334
 780.7	28385
 781.2	28373
 781.7	28423
 782.2	28351
 782.6	28411
 783.1	28404
 783.6	28365
 784.1	28309
 784.6	28297
 785.1	28303
 785.6	28292
 786.1	28310
 786.6	28322
 787.1	28261
 787.6	28246
 788.1	28218
 788.6	28203
 789.1	28173
 789.6	28193
 790.1	28203
 790.6	28179
 791.1	28074
 791.6	28063
 792.0	28049
 792.5	28067
 793.0	28022
 793.5	28001
 794.0	27924
 794.5	27987
 795.0	27924
 795.5	27892
 796.0	27868
 796.5	27786
 797.0	27779
 797.5	27795
 798.0	27618
 798.4	27612
 798.9	27571
 799.4	27554
 799.9	27523
 800.4	27354
 800.9	27423
 801.4	27438
 801.9	27358
 802.4	27238
 802.9	27259
 803.3	27220
 803.8	27145
 804.3	27062
 804.8	27076
 805.3	26997
 805.8	26929
 806.3	26885
 806.8	26835
 807.2	26783
 807.7	26724
 808.2	26700
 808.7	26589
 809.2	26555
 809.7	26457
 810.2	26485
 810.7	26373
 811.1	26356
 811.6	26321
 812.1	26233
 812.6	26159
 813.1	26176
 813.6	26155
 814.1	26116
 814.5	26038
 815.0	26033
 815.5	25948
 816.0	25884
 816.5	25911
 817.0	25836
 817.4	25796
 817.9	25793
 818.4	25694
 818.9	25753
 819.4	25689
 819.9	25638
 820.3	25586
 820.8	25564
 821.3	25554
 821.8	25539
 822.3	25448
 822.7	25409
 823.2	25453
 823.7	25389
 824.2	25373
 824.7	25331
 825.2	25325
 825.6	25283
 826.1	25257
 826.6	25298
 827.1	25259
 827.6	25240
 828.0	25163
 828.5	25131
 829.0	25147
 829.5	25079
 829.9	25064
 830.4	25111
 830.9	25074
 831.4	25093
 831.9	25029
 832.3	25097
 832.8	25017
 833.3	25013
 833.8	25075
 834.2	25065
 834.7	24899
 835.2	24979
 835.7	24967
 836.1	24957
 836.6	24925
 837.1	24920
 837.6	24913
 838.0	24939
 838.5	24954
 839.0	24947
 839.5	24927
 839.9	24839
 840.4	24835
 840.9	24793
 841.4	24818
 841.8	24834
 842.3	24837
 842.8	24847
 843.3	24836
 843.7	24721
 844.2	24697
 844.7	24767
 845.1	24734
 845.6	24646
 846.1	24657
 846.6	24681
 847.0	24567
 847.5	24613
 848.0	24575
 848.4	24600
 848.9	24547
 849.4	24509
 849.8	24517
 850.3	24511
 850.8	24539
 851.3	24488
 851.7	24464
 852.2	24453
 852.7	24429
 853.1	24402
 853.6	24329
 854.1	24359
 854.5	24303
 855.0	24272
 855.5	24253
 855.9	24293
 856.4	24256
 856.9	24159
 857.3	24197
 857.8	24138
 858.3	24147
 858.7	24081
 859.2	24090
 859.7	24080
 860.1	24124
 860.6	24076
 861.1	23987
 861.5	24020
 862.0	23992
 862.4	23949
 862.9	23885
 863.4	23899
 863.8	23886
 864.3	23860
 864.8	23754
 865.2	23779
 865.7	23772
 866.1	23775
 866.6	23669
 867.1	23728
 867.5	23698
 868.0	23658
 868.5	23598
 868.9	23575
 869.4	23668
 869.8	23606
 870.3	23560
 870.8	23618
 871.2	23567
 871.7	23558
 872.1	23501
 872.6	23547
 873.0	23521
 873.5	23599
 874.0	23579
 874.4	23465
 874.9	23490
 875.3	23427
 875.8	23306
 876.2	23068
 876.7	22870
 877.2	22476
 877.6	22009
 878.1	21546
