#xlabel Wavelength (nm)
#ylabel Spectrometer Array Counts
#title Exposure time is 11000 ms
## lambda	counts
 349.8	18924
 350.3	19212
 350.8	19485
 351.3	19701
 351.9	19827
 352.4	19961
 352.9	20036
 353.4	20002
 354.0	20012
 354.5	20053
 355.0	20062
 355.5	20081
 356.0	20034
 356.6	19998
 357.1	20049
 357.6	20026
 358.1	20054
 358.7	19996
 359.2	20012
 359.7	20041
 360.2	20083
 360.8	20051
 361.3	20153
 361.8	20100
 362.3	20137
 362.9	20090
 363.4	20171
 363.9	20174
 364.4	20210
 364.9	20115
 365.5	20199
 366.0	20185
 366.5	20136
 367.0	20189
 367.6	20223
 368.1	20225
 368.6	20162
 369.1	20229
 369.7	20284
 370.2	20202
 370.7	20208
 371.2	20258
 371.8	20321
 372.3	20242
 372.8	20327
 373.3	20346
 373.9	20291
 374.4	20318
 374.9	20371
 375.5	20255
 376.0	20405
 376.5	20370
 377.0	20399
 377.6	20349
 378.1	20437
 378.6	20377
 379.1	20390
 379.7	20379
 380.2	20464
 380.7	20471
 381.2	20436
 381.8	20432
 382.3	20482
 382.8	20469
 383.4	20522
 383.9	20466
 384.4	20638
 384.9	20543
 385.5	20566
 386.0	20567
 386.5	20647
 387.1	20577
 387.6	20608
 388.1	20617
 388.6	20641
 389.2	20638
 389.7	20663
 390.2	20651
 390.8	20757
 391.3	20739
 391.8	20746
 392.3	20743
 392.9	20750
 393.4	20757
 393.9	20837
 394.5	20855
 395.0	20815
 395.5	20851
 396.0	20857
 396.6	20834
 397.1	20941
 397.6	20949
 398.2	20952
 398.7	20955
 399.2	21057
 399.8	20934
 400.3	20999
 400.8	21052
 401.3	21023
 401.9	21046
 402.4	21069
 402.9	21065
 403.5	21106
 404.0	21102
 404.5	21061
 405.1	21078
 405.6	21193
 406.1	21180
 406.7	21193
 407.2	21225
 407.7	21319
 408.2	21330
 408.8	21341
 409.3	21391
 409.8	21444
 410.4	21424
 410.9	21443
 411.4	21392
 412.0	21481
 412.5	21545
 413.0	21503
 413.6	21561
 414.1	21531
 414.6	21570
 415.2	21625
 415.7	21568
 416.2	21636
 416.8	21631
 417.3	21628
 417.8	21658
 418.4	21768
 418.9	21707
 419.4	21859
 420.0	21748
 420.5	21823
 421.0	21770
 421.5	21877
 422.1	21856
 422.6	21919
 423.1	21959
 423.7	21933
 424.2	21925
 424.7	21967
 425.3	21953
 425.8	21988
 426.3	21973
 426.9	22044
 427.4	21989
 427.9	22123
 428.5	22071
 429.0	22127
 429.6	22101
 430.1	22205
 430.6	22222
 431.2	22185
 431.7	22319
 432.2	22302
 432.8	22301
 433.3	22451
 433.8	22478
 434.4	22473
 434.9	22510
 435.4	22590
 436.0	22593
 436.5	22602
 437.0	22695
 437.6	22687
 438.1	22753
 438.6	22775
 439.2	22805
 439.7	22803
 440.2	22746
 440.8	22779
 441.3	22785
 441.8	22792
 442.4	22760
 442.9	22790
 443.5	22829
 444.0	22819
 444.5	22847
 445.1	22760
 445.6	22809
 446.1	22851
 446.7	22886
 447.2	22913
 447.7	22914
 448.3	23019
 448.8	23003
 449.3	23079
 449.9	23053
 450.4	23193
 450.9	23267
 451.5	23303
 452.0	23315
 452.6	23368
 453.1	23472
 453.6	23521
 454.2	23445
 454.7	23545
 455.2	23609
 455.8	23682
 456.3	23652
 456.8	23799
 457.4	23751
 457.9	23769
 458.5	23825
 459.0	23795
 459.5	23843
 460.1	23797
 460.6	23846
 461.1	23839
 461.7	23891
 462.2	23838
 462.7	23877
 463.3	23804
 463.8	23881
 464.4	23954
 464.9	23906
 465.4	23987
 466.0	23899
 466.5	23991
 467.0	23937
 467.6	24021
 468.1	24133
 468.7	24094
 469.2	24043
 469.7	24170
 470.3	24173
 470.8	24243
 471.3	24243
 471.9	24237
 472.4	24321
 473.0	24389
 473.5	24433
 474.0	24457
 474.6	24488
 475.1	24514
 475.6	24606
 476.2	24637
 476.7	24637
 477.3	24713
 477.8	24679
 478.3	24615
 478.9	24859
 479.4	24765
 479.9	24798
 480.5	24809
 481.0	24865
 481.6	24903
 482.1	25001
 482.6	24996
 483.2	25050
 483.7	25181
 484.2	25155
 484.8	25013
 485.3	25139
 485.9	25234
 486.4	25226
 486.9	25273
 487.5	25253
 488.0	25283
 488.6	25369
 489.1	25405
 489.6	25467
 490.2	25486
 490.7	25461
 491.2	25438
 491.8	25508
 492.3	25462
 492.9	25526
 493.4	25542
 493.9	25569
 494.5	25564
 495.0	25622
 495.6	25544
 496.1	25553
 496.6	25602
 497.2	25511
 497.7	25481
 498.2	25561
 498.8	25575
 499.3	25497
 499.9	25551
 500.4	25556
 500.9	25551
 501.5	25564
 502.0	25660
 502.6	25666
 503.1	25786
 503.6	25783
 504.2	25767
 504.7	25816
 505.2	25926
 505.8	25951
 506.3	26097
 506.9	26166
 507.4	26189
 507.9	26225
 508.5	26318
 509.0	26414
 509.6	26555
 510.1	26571
 510.6	26662
 511.2	26732
 511.7	26780
 512.2	26887
 512.8	26956
 513.3	26963
 513.9	26985
 514.4	27075
 514.9	27184
 515.5	27085
 516.0	27167
 516.6	27129
 517.1	27177
 517.6	27140
 518.2	27111
 518.7	27027
 519.3	27065
 519.8	27065
 520.3	27031
 520.9	26970
 521.4	26949
 521.9	26981
 522.5	26867
 523.0	26859
 523.6	26886
 524.1	26719
 524.6	26762
 525.2	26778
 525.7	26824
 526.3	26762
 526.8	26859
 527.3	26825
 527.9	26872
 528.4	26877
 528.9	26957
 529.5	27011
 530.0	27033
 530.6	27122
 531.1	27169
 531.6	27129
 532.2	27302
 532.7	27319
 533.3	27419
 533.8	27600
 534.3	27695
 534.9	27749
 535.4	27774
 536.0	27897
 536.5	27987
 537.0	28013
 537.6	28087
 538.1	28192
 538.6	28259
 539.2	28250
 539.7	28314
 540.3	28446
 540.8	28447
 541.3	28431
 541.9	28493
 542.4	28505
 543.0	28589
 543.5	28559
 544.0	28542
 544.6	28587
 545.1	28605
 545.6	28628
 546.2	28614
 546.7	28503
 547.3	28574
 547.8	28537
 548.3	28575
 548.9	28481
 549.4	28465
 550.0	28433
 550.5	28487
 551.0	28519
 551.6	28463
 552.1	28469
 552.6	28475
 553.2	28415
 553.7	28397
 554.3	28435
 554.8	28517
 555.3	28367
 555.9	28444
 556.4	28427
 556.9	28548
 557.5	28579
 558.0	28553
 558.6	28551
 559.1	28637
 559.6	28639
 560.2	28679
 560.7	28703
 561.3	28694
 561.8	28695
 562.3	28839
 562.9	28844
 563.4	28907
 563.9	28907
 564.5	28941
 565.0	28939
 565.6	28976
 566.1	28991
 566.6	29006
 567.2	28999
 567.7	29102
 568.2	29043
 568.8	29049
 569.3	29044
 569.9	29108
 570.4	29089
 570.9	29077
 571.5	29075
 572.0	29087
 572.5	29151
 573.1	29107
 573.6	29186
 574.1	29179
 574.7	29195
 575.2	29189
 575.8	29259
 576.3	29352
 576.8	29331
 577.4	29367
 577.9	29409
 578.4	29407
 579.0	29441
 579.5	29584
 580.1	29525
 580.6	29579
 581.1	29682
 581.7	29737
 582.2	29715
 582.7	29773
 583.3	29839
 583.8	29838
 584.3	29819
 584.9	29899
 585.4	29911
 586.0	29915
 586.5	29969
 587.0	29963
 587.6	30059
 588.1	30026
 588.6	30103
 589.2	30060
 589.7	30089
 590.2	30092
 590.8	30081
 591.3	30103
 591.9	30040
 592.4	30084
 592.9	30011
 593.5	29983
 594.0	29961
 594.5	29957
 595.1	29901
 595.6	29847
 596.1	29883
 596.7	29829
 597.2	29844
 597.7	29757
 598.3	29747
 598.8	29703
 599.3	29681
 599.9	29617
 600.4	29591
 601.0	29582
 601.5	29561
 602.0	29533
 602.6	29481
 603.1	29497
 603.6	29499
 604.2	29596
 604.7	29516
 605.2	29591
 605.8	29514
 606.3	29557
 606.8	29639
 607.4	29645
 607.9	29709
 608.4	29672
 609.0	29738
 609.5	29806
 610.0	29808
 610.6	29929
 611.1	29877
 611.6	29957
 612.2	29987
 612.7	30077
 613.2	30110
 613.8	30083
 614.3	30163
 614.8	30239
 615.4	30231
 615.9	30367
 616.4	30479
 617.0	30473
 617.5	30604
 618.0	30681
 618.6	30685
 619.1	30783
 619.6	30907
 620.2	30984
 620.7	31120
 621.2	31147
 621.8	31237
 622.3	31320
 622.8	31351
 623.4	31423
 623.9	31524
 624.4	31537
 625.0	31563
 625.5	31569
 626.0	31596
 626.6	31665
 627.1	31644
 627.6	31594
 628.2	31563
 628.7	31605
 629.2	31575
 629.8	31583
 630.3	31567
 630.8	31538
 631.4	31475
 631.9	31465
 632.4	31319
 632.9	31293
 633.5	31253
 634.0	31177
 634.5	31190
 635.1	31098
 635.6	31047
 636.1	30984
 636.7	30969
 637.2	30927
 637.7	30789
 638.3	30863
 638.8	30810
 639.3	30801
 639.8	30697
 640.4	30696
 640.9	30693
 641.4	30592
 642.0	30551
 642.5	30547
 643.0	30513
 643.6	30593
 644.1	30536
 644.6	30551
 645.1	30562
 645.7	30563
 646.2	30515
 646.7	30539
 647.3	30567
 647.8	30596
 648.3	30574
 648.9	30627
 649.4	30550
 649.9	30634
 650.4	30670
 651.0	30740
 651.5	30771
 652.0	30850
 652.6	30832
 653.1	30935
 653.6	30875
 654.1	30960
 654.7	30954
 655.2	31070
 655.7	31135
 656.3	31178
 656.8	31162
 657.3	31238
 657.8	31222
 658.4	31255
 658.9	31295
 659.4	31383
 659.9	31410
 660.5	31398
 661.0	31456
 661.5	31514
 662.1	31489
 662.6	31515
 663.1	31489
 663.6	31589
 664.2	31532
 664.7	31513
 665.2	31462
 665.7	31572
 666.3	31529
 666.8	31523
 667.3	31527
 667.8	31491
 668.4	31508
 668.9	31509
 669.4	31475
 669.9	31488
 670.5	31414
 671.0	31418
 671.5	31366
 672.0	31402
 672.6	31376
 673.1	31409
 673.6	31299
 674.1	31313
 674.7	31295
 675.2	31331
 675.7	31182
 676.2	31160
 676.8	31215
 677.3	31205
 677.8	31120
 678.3	31207
 678.9	31131
 679.4	31053
 679.9	31110
 680.4	31095
 681.0	31039
 681.5	31065
 682.0	31013
 682.5	31043
 683.1	30936
 683.6	30962
 684.1	30898
 684.6	30995
 685.1	30932
 685.7	30945
 686.2	30919
 686.7	30869
 687.2	30862
 687.8	30923
 688.3	30868
 688.8	30885
 689.3	30819
 689.8	30855
 690.4	30842
 690.9	30856
 691.4	30875
 691.9	30877
 692.4	30857
 693.0	30929
 693.5	30893
 694.0	30885
 694.5	30881
 695.1	30861
 695.6	30815
 696.1	30895
 696.6	30883
 697.1	30904
 697.7	30924
 698.2	30851
 698.7	30884
 699.2	30845
 699.7	30846
 700.3	30803
 700.8	30779
 701.3	30863
 701.8	30824
 702.3	30764
 702.8	30758
 703.4	30740
 703.9	30712
 704.4	30676
 704.9	30637
 705.4	30625
 706.0	30680
 706.5	30649
 707.0	30548
 707.5	30519
 708.0	30531
 708.5	30452
 709.1	30501
 709.6	30443
 710.1	30370
 710.6	30331
 711.1	30292
 711.7	30286
 712.2	30242
 712.7	30232
 713.2	30165
 713.7	30137
 714.2	30055
 714.8	30111
 715.3	30027
 715.8	29983
 716.3	29958
 716.8	29853
 717.3	29819
 717.8	29885
 718.4	29879
 718.9	29802
 719.4	29887
 719.9	29771
 720.4	29816
 720.9	29840
 721.4	29838
 722.0	29871
 722.5	29861
 723.0	29871
 723.5	29900
 724.0	29879
 724.5	29883
 725.0	29934
 725.6	29886
 726.1	29963
 726.6	30090
 727.1	30045
 727.6	30107
 728.1	30141
 728.6	30111
 729.1	30123
 729.7	30125
 730.2	30163
 730.7	30195
 731.2	30238
 731.7	30237
 732.2	30266
 732.7	30249
 733.2	30301
 733.8	30277
 734.3	30316
 734.8	30303
 735.3	30346
 735.8	30354
 736.3	30351
 736.8	30407
 737.3	30474
 737.8	30430
 738.4	30442
 738.9	30402
 739.4	30507
 739.9	30491
 740.4	30520
 740.9	30497
 741.4	30507
 741.9	30504
 742.4	30527
 742.9	30513
 743.4	30587
 744.0	30504
 744.5	30494
 745.0	30494
 745.5	30559
 746.0	30527
 746.5	30537
 747.0	30460
 747.5	30436
 748.0	30405
 748.5	30421
 749.0	30414
 749.5	30487
 750.0	30314
 750.5	30345
 751.1	30329
 751.6	30313
 752.1	30275
 752.6	30227
 753.1	30245
 753.6	30167
 754.1	30118
 754.6	30134
 755.1	30070
 755.6	30058
 756.1	29946
 756.6	30014
 757.1	29964
 757.6	29923
 758.1	29858
 758.6	29839
 759.1	29734
 759.6	29751
 760.1	29675
 760.7	29599
 761.2	29652
 761.7	29583
 762.2	29538
 762.7	29549
 763.2	29406
 763.7	29451
 764.2	29355
 764.7	29319
 765.2	29321
 765.7	29253
 766.2	29186
 766.7	29194
 767.2	29109
 767.7	29071
 768.2	29030
 768.7	28967
 769.2	28919
 769.7	28935
 770.2	28887
 770.7	28862
 771.2	28805
 771.7	28770
 772.2	28757
 772.7	28787
 773.2	28745
 773.7	28670
 774.2	28613
 774.7	28630
 775.2	28587
 775.7	28559
 776.2	28530
 776.7	28552
 777.2	28462
 777.7	28522
 778.2	28489
 778.7	28522
 779.2	28513
 779.7	28529
 780.2	28354
 780.7	28411
 781.2	28400
 781.7	28451
 782.2	28377
 782.6	28435
 783.1	28425
 783.6	28390
 784.1	28339
 784.6	28322
 785.1	28323
 785.6	28326
 786.1	28329
 786.6	28343
 787.1	28282
 787.6	28272
 788.1	28247
 788.6	28222
 789.1	28208
 789.6	28218
 790.1	28221
 790.6	28205
 791.1	28094
 791.6	28082
 792.0	28068
 792.5	28086
 793.0	28051
 793.5	28021
 794.0	27942
 794.5	28006
 795.0	27943
 795.5	27909
 796.0	27888
 796.5	27812
 797.0	27801
 797.5	27818
 798.0	27638
 798.4	27636
 798.9	27591
 799.4	27571
 799.9	27546
 800.4	27371
 800.9	27441
 801.4	27458
 801.9	27382
 802.4	27257
 802.9	27279
 803.3	27235
 803.8	27159
 804.3	27082
 804.8	27092
 805.3	27013
 805.8	26947
 806.3	26907
 806.8	26853
 807.2	26809
 807.7	26737
 808.2	26714
 808.7	26606
 809.2	26574
 809.7	26473
 810.2	26498
 810.7	26395
 811.1	26375
 811.6	26335
 812.1	26253
 812.6	26175
 813.1	26187
 813.6	26174
 814.1	26129
 814.5	26049
 815.0	26045
 815.5	25965
 816.0	25894
 816.5	25923
 817.0	25850
 817.4	25810
 817.9	25809
 818.4	25705
 818.9	25764
 819.4	25700
 819.9	25647
 820.3	25600
 820.8	25569
 821.3	25563
 821.8	25547
 822.3	25457
 822.7	25419
 823.2	25465
 823.7	25400
 824.2	25386
 824.7	25341
 825.2	25335
 825.6	25290
 826.1	25263
 826.6	25305
 827.1	25270
 827.6	25253
 828.0	25172
 828.5	25139
 829.0	25159
 829.5	25088
 829.9	25072
 830.4	25126
 830.9	25084
 831.4	25104
 831.9	25042
 832.3	25099
 832.8	25027
 833.3	25029
 833.8	25082
 834.2	25077
 834.7	24905
 835.2	24989
 835.7	24981
 836.1	24962
 836.6	24932
 837.1	24925
 837.6	24919
 838.0	24946
 838.5	24962
 839.0	24950
 839.5	24935
 839.9	24848
 840.4	24843
 840.9	24797
 841.4	24830
 841.8	24847
 842.3	24845
 842.8	24849
 843.3	24841
 843.7	24722
 844.2	24703
 844.7	24775
 845.1	24738
 845.6	24653
 846.1	24669
 846.6	24686
 847.0	24577
 847.5	24615
 848.0	24585
 848.4	24605
 848.9	24554
 849.4	24519
 849.8	24520
 850.3	24517
 850.8	24545
 851.3	24492
 851.7	24471
 852.2	24455
 852.7	24435
 853.1	24408
 853.6	24338
 854.1	24361
 854.5	24308
 855.0	24277
 855.5	24255
 855.9	24301
 856.4	24260
 856.9	24165
 857.3	24201
 857.8	24146
 858.3	24155
 858.7	24090
 859.2	24097
 859.7	24089
 860.1	24129
 860.6	24078
 861.1	23989
 861.5	24021
 862.0	24000
 862.4	23951
 862.9	23887
 863.4	23903
 863.8	23879
 864.3	23862
 864.8	23753
 865.2	23781
 865.7	23771
 866.1	23775
 866.6	23667
 867.1	23723
 867.5	23699
 868.0	23662
 868.5	23594
 868.9	23575
 869.4	23669
 869.8	23615
 870.3	23555
 870.8	23618
 871.2	23559
 871.7	23546
 872.1	23486
 872.6	23531
 873.0	23498
 873.5	23575
 874.0	23562
 874.4	23443
 874.9	23472
 875.3	23419
 875.8	23303
 876.2	23065
 876.7	22880
 877.2	22496
 877.6	22029
 878.1	21556
