#xlabel Wavelength (nm)
#ylabel Spectrometer Array Counts
#title Exposure time is 11000 ms
## lambda	counts
 349.8	18817
 350.3	19137
 350.8	19415
 351.3	19615
 351.9	19707
 352.4	19801
 352.9	19846
 353.4	19783
 354.0	19772
 354.5	19801
 355.0	19796
 355.5	19807
 356.0	19768
 356.6	19725
 357.1	19783
 357.6	19751
 358.1	19780
 358.7	19714
 359.2	19729
 359.7	19748
 360.2	19785
 360.8	19748
 361.3	19845
 361.8	19780
 362.3	19807
 362.9	19761
 363.4	19836
 363.9	19835
 364.4	19863
 364.9	19761
 365.5	19838
 366.0	19813
 366.5	19764
 367.0	19807
 367.6	19830
 368.1	19827
 368.6	19753
 369.1	19814
 369.7	19864
 370.2	19776
 370.7	19779
 371.2	19815
 371.8	19871
 372.3	19780
 372.8	19860
 373.3	19867
 373.9	19802
 374.4	19818
 374.9	19865
 375.5	19741
 376.0	19871
 376.5	19823
 377.0	19850
 377.6	19790
 378.1	19866
 378.6	19792
 379.1	19786
 379.7	19760
 380.2	19834
 380.7	19825
 381.2	19778
 381.8	19762
 382.3	19800
 382.8	19777
 383.4	19822
 383.9	19764
 384.4	19919
 384.9	19820
 385.5	19835
 386.0	19838
 386.5	19906
 387.1	19825
 387.6	19843
 388.1	19841
 388.6	19851
 389.2	19837
 389.7	19851
 390.2	19820
 390.8	19907
 391.3	19865
 391.8	19851
 392.3	19827
 392.9	19813
 393.4	19794
 393.9	19855
 394.5	19851
 395.0	19792
 395.5	19799
 396.0	19797
 396.6	19752
 397.1	19851
 397.6	19839
 398.2	19833
 398.7	19831
 399.2	19925
 399.8	19787
 400.3	19849
 400.8	19899
 401.3	19861
 401.9	19873
 402.4	19886
 402.9	19867
 403.5	19888
 404.0	19871
 404.5	19806
 405.1	19801
 405.6	19895
 406.1	19858
 406.7	19853
 407.2	19851
 407.7	19925
 408.2	19912
 408.8	19901
 409.3	19925
 409.8	19962
 410.4	19909
 410.9	19903
 411.4	19838
 412.0	19897
 412.5	19943
 413.0	19879
 413.6	19919
 414.1	19870
 414.6	19895
 415.2	19926
 415.7	19859
 416.2	19897
 416.8	19876
 417.3	19853
 417.8	19868
 418.4	19950
 418.9	19877
 419.4	20011
 420.0	19878
 420.5	19938
 421.0	19873
 421.5	19953
 422.1	19925
 422.6	19969
 423.1	19995
 423.7	19946
 424.2	19928
 424.7	19958
 425.3	19927
 425.8	19941
 426.3	19921
 426.9	19977
 427.4	19908
 427.9	20019
 428.5	19942
 429.0	19977
 429.6	19915
 430.1	19994
 430.6	19979
 431.2	19895
 431.7	19989
 432.2	19940
 432.8	19899
 433.3	19991
 433.8	19986
 434.4	19941
 434.9	19939
 435.4	19977
 436.0	19941
 436.5	19926
 437.0	19996
 437.6	19959
 438.1	20007
 438.6	20005
 439.2	20024
 439.7	20007
 440.2	19946
 440.8	19977
 441.3	19981
 441.8	19977
 442.4	19942
 442.9	19969
 443.5	20001
 444.0	19998
 444.5	20019
 445.1	19919
 445.6	19951
 446.1	19973
 446.7	19981
 447.2	19990
 447.7	19965
 448.3	20025
 448.8	19973
 449.3	20004
 449.9	19925
 450.4	20007
 450.9	20029
 451.5	20015
 452.0	19966
 452.6	19966
 453.1	20004
 453.6	20002
 454.2	19870
 454.7	19932
 455.2	19941
 455.8	19971
 456.3	19908
 456.8	20031
 457.4	19940
 457.9	19947
 458.5	19987
 459.0	19937
 459.5	19975
 460.1	19920
 460.6	19969
 461.1	19957
 461.7	20001
 462.2	19947
 462.7	19988
 463.3	19913
 463.8	19984
 464.4	20055
 464.9	19988
 465.4	20053
 466.0	19935
 466.5	20009
 467.0	19927
 467.6	19993
 468.1	20071
 468.7	19995
 469.2	19905
 469.7	19994
 470.3	19953
 470.8	19987
 471.3	19949
 471.9	19891
 472.4	19944
 473.0	19975
 473.5	19978
 474.0	19962
 474.6	19955
 475.1	19939
 475.6	20009
 476.2	20007
 476.7	19974
 477.3	20023
 477.8	19958
 478.3	19875
 478.9	20080
 479.4	19949
 479.9	19951
 480.5	19926
 481.0	19942
 481.6	19955
 482.1	20008
 482.6	19979
 483.2	19977
 483.7	20093
 484.2	20007
 484.8	19823
 485.3	19919
 485.9	19988
 486.4	19937
 486.9	19947
 487.5	19896
 488.0	19895
 488.6	19951
 489.1	19951
 489.6	19997
 490.2	19990
 490.7	19937
 491.2	19905
 491.8	19953
 492.3	19901
 492.9	19950
 493.4	19954
 493.9	19969
 494.5	19972
 495.0	20046
 495.6	19954
 496.1	19975
 496.6	20035
 497.2	19947
 497.7	19910
 498.2	20003
 498.8	20031
 499.3	19935
 499.9	19991
 500.4	19988
 500.9	19959
 501.5	19943
 502.0	20007
 502.6	19979
 503.1	20057
 503.6	20007
 504.2	19943
 504.7	19933
 505.2	19991
 505.8	19963
 506.3	20030
 506.9	20017
 507.4	19961
 507.9	19919
 508.5	19931
 509.0	19951
 509.6	20009
 510.1	19953
 510.6	19983
 511.2	19987
 511.7	19953
 512.2	20013
 512.8	20013
 513.3	19964
 513.9	19939
 514.4	19999
 514.9	20063
 515.5	19951
 516.0	20033
 516.6	19997
 517.1	20051
 517.6	20038
 518.2	20017
 518.7	19948
 519.3	20016
 519.8	20063
 520.3	20065
 520.9	20025
 521.4	20041
 521.9	20108
 522.5	20029
 523.0	20063
 523.6	20108
 524.1	19949
 524.6	20009
 525.2	20032
 525.7	20070
 526.3	19974
 526.8	20073
 527.3	20013
 527.9	20029
 528.4	19999
 528.9	20051
 529.5	20063
 530.0	20032
 530.6	20070
 531.1	20063
 531.6	19953
 532.2	20066
 532.7	20007
 533.3	20029
 533.8	20143
 534.3	20157
 534.9	20139
 535.4	20059
 536.0	20120
 536.5	20146
 537.0	20094
 537.6	20097
 538.1	20137
 538.6	20143
 539.2	20067
 539.7	20071
 540.3	20161
 540.8	20121
 541.3	20064
 541.9	20095
 542.4	20090
 543.0	20154
 543.5	20107
 544.0	20081
 544.6	20140
 545.1	20142
 545.6	20180
 546.2	20163
 546.7	20066
 547.3	20134
 547.8	20114
 548.3	20167
 548.9	20079
 549.4	20081
 550.0	20051
 550.5	20121
 551.0	20168
 551.6	20114
 552.1	20143
 552.6	20135
 553.2	20113
 553.7	20084
 554.3	20128
 554.8	20195
 555.3	20040
 555.9	20114
 556.4	20067
 556.9	20163
 557.5	20184
 558.0	20127
 558.6	20093
 559.1	20178
 559.6	20149
 560.2	20132
 560.7	20127
 561.3	20090
 561.8	20065
 562.3	20179
 562.9	20151
 563.4	20175
 563.9	20158
 564.5	20156
 565.0	20137
 565.6	20162
 566.1	20151
 566.6	20157
 567.2	20138
 567.7	20248
 568.2	20140
 568.8	20156
 569.3	20119
 569.9	20198
 570.4	20182
 570.9	20143
 571.5	20136
 572.0	20123
 572.5	20181
 573.1	20118
 573.6	20165
 574.1	20151
 574.7	20141
 575.2	20109
 575.8	20143
 576.3	20207
 576.8	20166
 577.4	20172
 577.9	20181
 578.4	20121
 579.0	20119
 579.5	20221
 580.1	20133
 580.6	20124
 581.1	20198
 581.7	20204
 582.2	20134
 582.7	20173
 583.3	20210
 583.8	20169
 584.3	20106
 584.9	20161
 585.4	20155
 586.0	20119
 586.5	20153
 587.0	20100
 587.6	20177
 588.1	20115
 588.6	20191
 589.2	20124
 589.7	20137
 590.2	20125
 590.8	20131
 591.3	20155
 591.9	20095
 592.4	20159
 592.9	20099
 593.5	20095
 594.0	20094
 594.5	20118
 595.1	20105
 595.6	20091
 596.1	20160
 596.7	20126
 597.2	20175
 597.7	20113
 598.3	20131
 598.8	20111
 599.3	20129
 599.9	20109
 600.4	20111
 601.0	20123
 601.5	20111
 602.0	20108
 602.6	20051
 603.1	20074
 603.6	20070
 604.2	20177
 604.7	20069
 605.2	20143
 605.8	20053
 606.3	20073
 606.8	20149
 607.4	20110
 607.9	20139
 608.4	20073
 609.0	20099
 609.5	20143
 610.0	20107
 610.6	20198
 611.1	20095
 611.6	20111
 612.2	20102
 612.7	20164
 613.2	20136
 613.8	20047
 614.3	20067
 614.8	20115
 615.4	20017
 615.9	20097
 616.4	20137
 617.0	20069
 617.5	20159
 618.0	20158
 618.6	20058
 619.1	20071
 619.6	20135
 620.2	20101
 620.7	20145
 621.2	20087
 621.8	20113
 622.3	20120
 622.8	20059
 623.4	20081
 623.9	20133
 624.4	20099
 625.0	20087
 625.5	20085
 626.0	20099
 626.6	20141
 627.1	20134
 627.6	20081
 628.2	20046
 628.7	20082
 629.2	20066
 629.8	20104
 630.3	20126
 630.8	20112
 631.4	20105
 631.9	20143
 632.4	20034
 632.9	20075
 633.5	20085
 634.0	20048
 634.5	20157
 635.1	20091
 635.6	20073
 636.1	20066
 636.7	20145
 637.2	20143
 637.7	20059
 638.3	20175
 638.8	20173
 639.3	20198
 639.8	20156
 640.4	20183
 640.9	20211
 641.4	20122
 642.0	20120
 642.5	20146
 643.0	20117
 643.6	20207
 644.1	20164
 644.6	20175
 645.1	20218
 645.7	20196
 646.2	20154
 646.7	20171
 647.3	20199
 647.8	20197
 648.3	20174
 648.9	20200
 649.4	20101
 649.9	20173
 650.4	20173
 651.0	20208
 651.5	20211
 652.0	20265
 652.6	20196
 653.1	20269
 653.6	20165
 654.1	20242
 654.7	20184
 655.2	20254
 655.7	20282
 656.3	20294
 656.8	20221
 657.3	20263
 657.8	20210
 658.4	20186
 658.9	20185
 659.4	20273
 659.9	20254
 660.5	20221
 661.0	20270
 661.5	20311
 662.1	20258
 662.6	20270
 663.1	20221
 663.6	20302
 664.2	20255
 664.7	20227
 665.2	20145
 665.7	20275
 666.3	20245
 666.8	20255
 667.3	20257
 667.8	20211
 668.4	20253
 668.9	20259
 669.4	20246
 669.9	20282
 670.5	20222
 671.0	20241
 671.5	20197
 672.0	20274
 672.6	20280
 673.1	20308
 673.6	20219
 674.1	20261
 674.7	20251
 675.2	20322
 675.7	20171
 676.2	20193
 676.8	20244
 677.3	20281
 677.8	20202
 678.3	20324
 678.9	20263
 679.4	20211
 679.9	20283
 680.4	20299
 681.0	20259
 681.5	20307
 682.0	20279
 682.5	20305
 683.1	20219
 683.6	20289
 684.1	20224
 684.6	20339
 685.1	20270
 685.7	20306
 686.2	20269
 686.7	20234
 687.2	20221
 687.8	20302
 688.3	20241
 688.8	20277
 689.3	20211
 689.8	20245
 690.4	20243
 690.9	20252
 691.4	20243
 691.9	20285
 692.4	20232
 693.0	20304
 693.5	20275
 694.0	20255
 694.5	20250
 695.1	20225
 695.6	20188
 696.1	20264
 696.6	20243
 697.1	20267
 697.7	20295
 698.2	20227
 698.7	20251
 699.2	20210
 699.7	20218
 700.3	20199
 700.8	20176
 701.3	20301
 701.8	20262
 702.3	20211
 702.8	20219
 703.4	20190
 703.9	20210
 704.4	20219
 704.9	20179
 705.4	20193
 706.0	20307
 706.5	20299
 707.0	20213
 707.5	20205
 708.0	20247
 708.5	20202
 709.1	20279
 709.6	20248
 710.1	20223
 710.6	20197
 711.1	20213
 711.7	20243
 712.2	20253
 712.7	20264
 713.2	20252
 713.7	20257
 714.2	20220
 714.8	20313
 715.3	20261
 715.8	20271
 716.3	20282
 716.8	20179
 717.3	20173
 717.8	20297
 718.4	20303
 718.9	20241
 719.4	20327
 719.9	20223
 720.4	20277
 720.9	20283
 721.4	20280
 722.0	20297
 722.5	20277
 723.0	20264
 723.5	20274
 724.0	20233
 724.5	20226
 725.0	20241
 725.6	20165
 726.1	20216
 726.6	20335
 727.1	20275
 727.6	20317
 728.1	20327
 728.6	20283
 729.1	20269
 729.7	20253
 730.2	20286
 730.7	20318
 731.2	20341
 731.7	20330
 732.2	20338
 732.7	20318
 733.2	20368
 733.8	20341
 734.3	20353
 734.8	20313
 735.3	20337
 735.8	20319
 736.3	20285
 736.8	20311
 737.3	20348
 737.8	20292
 738.4	20287
 738.9	20236
 739.4	20329
 739.9	20306
 740.4	20305
 740.9	20300
 741.4	20298
 741.9	20289
 742.4	20304
 742.9	20290
 743.4	20393
 744.0	20304
 744.5	20304
 745.0	20321
 745.5	20411
 746.0	20390
 746.5	20399
 747.0	20347
 747.5	20333
 748.0	20305
 748.5	20326
 749.0	20347
 749.5	20449
 750.0	20287
 750.5	20358
 751.1	20371
 751.6	20379
 752.1	20375
 752.6	20343
 753.1	20384
 753.6	20327
 754.1	20296
 754.6	20359
 755.1	20319
 755.6	20340
 756.1	20260
 756.6	20383
 757.1	20349
 757.6	20347
 758.1	20317
 758.6	20349
 759.1	20281
 759.6	20338
 760.1	20293
 760.7	20263
 761.2	20358
 761.7	20299
 762.2	20294
 762.7	20363
 763.2	20212
 763.7	20326
 764.2	20269
 764.7	20275
 765.2	20325
 765.7	20306
 766.2	20273
 766.7	20337
 767.2	20292
 767.7	20318
 768.2	20311
 768.7	20286
 769.2	20295
 769.7	20351
 770.2	20326
 770.7	20330
 771.2	20320
 771.7	20300
 772.2	20322
 772.7	20378
 773.2	20363
 773.7	20321
 774.2	20277
 774.7	20333
 775.2	20321
 775.7	20309
 776.2	20305
 776.7	20342
 777.2	20267
 777.7	20353
 778.2	20346
 778.7	20385
 779.2	20403
 779.7	20438
 780.2	20273
 780.7	20346
 781.2	20359
 781.7	20445
 782.2	20361
 782.6	20443
 783.1	20455
 783.6	20418
 784.1	20389
 784.6	20379
 785.1	20388
 785.6	20383
 786.1	20426
 786.6	20445
 787.1	20386
 787.6	20397
 788.1	20395
 788.6	20378
 789.1	20383
 789.6	20435
 790.1	20453
 790.6	20454
 791.1	20360
 791.6	20375
 792.0	20403
 792.5	20446
 793.0	20437
 793.5	20439
 794.0	20379
 794.5	20484
 795.0	20477
 795.5	20452
 796.0	20477
 796.5	20429
 797.0	20466
 797.5	20519
 798.0	20377
 798.4	20431
 798.9	20423
 799.4	20457
 799.9	20481
 800.4	20341
 800.9	20457
 801.4	20545
 801.9	20513
 802.4	20454
 802.9	20539
 803.3	20541
 803.8	20523
 804.3	20472
 804.8	20555
 805.3	20518
 805.8	20515
 806.3	20535
 806.8	20523
 807.2	20530
 807.7	20513
 808.2	20551
 808.7	20474
 809.2	20500
 809.7	20445
 810.2	20521
 810.7	20472
 811.1	20503
 811.6	20516
 812.1	20475
 812.6	20448
 813.1	20507
 813.6	20533
 814.1	20522
 814.5	20483
 815.0	20520
 815.5	20495
 816.0	20450
 816.5	20531
 817.0	20489
 817.4	20477
 817.9	20525
 818.4	20459
 818.9	20559
 819.4	20514
 819.9	20501
 820.3	20471
 820.8	20482
 821.3	20491
 821.8	20527
 822.3	20466
 822.7	20444
 823.2	20520
 823.7	20475
 824.2	20490
 824.7	20470
 825.2	20499
 825.6	20481
 826.1	20479
 826.6	20536
 827.1	20529
 827.6	20523
 828.0	20462
 828.5	20442
 829.0	20489
 829.5	20435
 829.9	20443
 830.4	20516
 830.9	20495
 831.4	20529
 831.9	20485
 832.3	20574
 832.8	20517
 833.3	20523
 833.8	20607
 834.2	20603
 834.7	20441
 835.2	20547
 835.7	20551
 836.1	20548
 836.6	20534
 837.1	20544
 837.6	20547
 838.0	20597
 838.5	20628
 839.0	20627
 839.5	20618
 839.9	20536
 840.4	20553
 840.9	20513
 841.4	20562
 841.8	20594
 842.3	20607
 842.8	20631
 843.3	20632
 843.7	20529
 844.2	20523
 844.7	20617
 845.1	20584
 845.6	20507
 846.1	20540
 846.6	20569
 847.0	20473
 847.5	20529
 848.0	20517
 848.4	20561
 848.9	20529
 849.4	20517
 849.8	20547
 850.3	20549
 850.8	20602
 851.3	20565
 851.7	20565
 852.2	20573
 852.7	20567
 853.1	20547
 853.6	20506
 854.1	20549
 854.5	20516
 855.0	20511
 855.5	20509
 855.9	20581
 856.4	20572
 856.9	20487
 857.3	20556
 857.8	20532
 858.3	20583
 858.7	20535
 859.2	20562
 859.7	20550
 860.1	20607
 860.6	20595
 861.1	20537
 861.5	20586
 862.0	20604
 862.4	20583
 862.9	20543
 863.4	20583
 863.8	20598
 864.3	20605
 864.8	20518
 865.2	20577
 865.7	20607
 866.1	20625
 866.6	20542
 867.1	20628
 867.5	20613
 868.0	20597
 868.5	20553
 868.9	20559
 869.4	20675
 869.8	20633
 870.3	20583
 870.8	20658
 871.2	20607
 871.7	20604
 872.1	20551
 872.6	20608
 873.0	20591
 873.5	20689
 874.0	20693
 874.4	20607
 874.9	20687
 875.3	20685
 875.8	20639
 876.2	20474
 876.7	20361
 877.2	20020
 877.6	19564
 878.1	19086
