#xlabel Wavelength (nm)
#ylabel Spectrometer Array Counts
#title Exposure time is 11000 ms
## lambda	counts
 349.8	19177
 350.3	19427
 350.8	19586
 351.3	19680
 351.9	19710
 352.4	19776
 352.9	19811
 353.4	19754
 354.0	19750
 354.5	19791
 355.0	19800
 355.5	19824
 356.0	19781
 356.6	19752
 357.1	19806
 357.6	19781
 358.1	19811
 358.7	19747
 359.2	19755
 359.7	19776
 360.2	19814
 360.8	19773
 361.3	19870
 361.8	19807
 362.3	19838
 362.9	19787
 363.4	19865
 363.9	19856
 364.4	19888
 364.9	19787
 365.5	19863
 366.0	19835
 366.5	19791
 367.0	19835
 367.6	19860
 368.1	19857
 368.6	19783
 369.1	19842
 369.7	19892
 370.2	19796
 370.7	19802
 371.2	19841
 371.8	19894
 372.3	19805
 372.8	19885
 373.3	19895
 373.9	19825
 374.4	19845
 374.9	19892
 375.5	19770
 376.0	19903
 376.5	19853
 377.0	19876
 377.6	19813
 378.1	19890
 378.6	19815
 379.1	19815
 379.7	19787
 380.2	19856
 380.7	19853
 381.2	19806
 381.8	19790
 382.3	19825
 382.8	19803
 383.4	19851
 383.9	19785
 384.4	19949
 384.9	19847
 385.5	19860
 386.0	19859
 386.5	19931
 387.1	19850
 387.6	19871
 388.1	19866
 388.6	19873
 389.2	19859
 389.7	19874
 390.2	19846
 390.8	19933
 391.3	19891
 391.8	19879
 392.3	19852
 392.9	19841
 393.4	19819
 393.9	19881
 394.5	19875
 395.0	19817
 395.5	19829
 396.0	19821
 396.6	19781
 397.1	19872
 397.6	19869
 398.2	19864
 398.7	19861
 399.2	19951
 399.8	19813
 400.3	19883
 400.8	19924
 401.3	19885
 401.9	19901
 402.4	19911
 402.9	19895
 403.5	19917
 404.0	19899
 404.5	19835
 405.1	19827
 405.6	19921
 406.1	19883
 406.7	19883
 407.2	19879
 407.7	19959
 408.2	19939
 408.8	19931
 409.3	19955
 409.8	19992
 410.4	19931
 410.9	19925
 411.4	19864
 412.0	19924
 412.5	19970
 413.0	19907
 413.6	19942
 414.1	19897
 414.6	19923
 415.2	19959
 415.7	19885
 416.2	19927
 416.8	19903
 417.3	19879
 417.8	19892
 418.4	19979
 418.9	19903
 419.4	20033
 420.0	19910
 420.5	19965
 421.0	19894
 421.5	19975
 422.1	19944
 422.6	19993
 423.1	20017
 423.7	19977
 424.2	19951
 424.7	19979
 425.3	19951
 425.8	19966
 426.3	19943
 426.9	19999
 427.4	19939
 427.9	20044
 428.5	19969
 429.0	20006
 429.6	19949
 430.1	20025
 430.6	20005
 431.2	19923
 431.7	20012
 432.2	19964
 432.8	19925
 433.3	20025
 433.8	20015
 434.4	19967
 434.9	19971
 435.4	20008
 436.0	19965
 436.5	19952
 437.0	20019
 437.6	19984
 438.1	20035
 438.6	20034
 439.2	20054
 439.7	20035
 440.2	19974
 440.8	20001
 441.3	20002
 441.8	20002
 442.4	19966
 442.9	19997
 443.5	20034
 444.0	20024
 444.5	20051
 445.1	19947
 445.6	19979
 446.1	19997
 446.7	20007
 447.2	20015
 447.7	19989
 448.3	20053
 448.8	19999
 449.3	20028
 449.9	19955
 450.4	20036
 450.9	20059
 451.5	20042
 452.0	19991
 452.6	19995
 453.1	20032
 453.6	20030
 454.2	19900
 454.7	19959
 455.2	19967
 455.8	20003
 456.3	19935
 456.8	20058
 457.4	19969
 457.9	19969
 458.5	20012
 459.0	19966
 459.5	20000
 460.1	19949
 460.6	19998
 461.1	19982
 461.7	20026
 462.2	19974
 462.7	20020
 463.3	19941
 463.8	20016
 464.4	20085
 464.9	20012
 465.4	20081
 466.0	19966
 466.5	20033
 467.0	19953
 467.6	20017
 468.1	20107
 468.7	20022
 469.2	19935
 469.7	20019
 470.3	19981
 470.8	20015
 471.3	19975
 471.9	19917
 472.4	19972
 473.0	20002
 473.5	20011
 474.0	19991
 474.6	19987
 475.1	19971
 475.6	20037
 476.2	20038
 476.7	20003
 477.3	20055
 477.8	19982
 478.3	19897
 478.9	20107
 479.4	19977
 479.9	19975
 480.5	19955
 481.0	19965
 481.6	19984
 482.1	20035
 482.6	20009
 483.2	20003
 483.7	20113
 484.2	20033
 484.8	19847
 485.3	19943
 485.9	20018
 486.4	19966
 486.9	19972
 487.5	19924
 488.0	19929
 488.6	19976
 489.1	19977
 489.6	20030
 490.2	20018
 490.7	19959
 491.2	19931
 491.8	19976
 492.3	19921
 492.9	19975
 493.4	19983
 493.9	19998
 494.5	20003
 495.0	20075
 495.6	19982
 496.1	19997
 496.6	20065
 497.2	19973
 497.7	19936
 498.2	20029
 498.8	20058
 499.3	19963
 499.9	20018
 500.4	20013
 500.9	19991
 501.5	19976
 502.0	20033
 502.6	20004
 503.1	20083
 503.6	20031
 504.2	19970
 504.7	19963
 505.2	20014
 505.8	19988
 506.3	20059
 506.9	20048
 507.4	19993
 507.9	19952
 508.5	19962
 509.0	19989
 509.6	20040
 510.1	19989
 510.6	20009
 511.2	20014
 511.7	19983
 512.2	20038
 512.8	20046
 513.3	19991
 513.9	19969
 514.4	20025
 514.9	20093
 515.5	19984
 516.0	20059
 516.6	20027
 517.1	20079
 517.6	20059
 518.2	20039
 518.7	19979
 519.3	20042
 519.8	20093
 520.3	20096
 520.9	20050
 521.4	20070
 521.9	20132
 522.5	20059
 523.0	20093
 523.6	20132
 524.1	19977
 524.6	20039
 525.2	20063
 525.7	20098
 526.3	20001
 526.8	20102
 527.3	20036
 527.9	20054
 528.4	20033
 528.9	20081
 529.5	20095
 530.0	20061
 530.6	20099
 531.1	20092
 531.6	19983
 532.2	20092
 532.7	20030
 533.3	20054
 533.8	20169
 534.3	20187
 534.9	20168
 535.4	20087
 536.0	20147
 536.5	20172
 537.0	20120
 537.6	20129
 538.1	20165
 538.6	20171
 539.2	20097
 539.7	20095
 540.3	20194
 540.8	20148
 541.3	20097
 541.9	20123
 542.4	20119
 543.0	20177
 543.5	20134
 544.0	20114
 544.6	20166
 545.1	20170
 545.6	20215
 546.2	20191
 546.7	20099
 547.3	20165
 547.8	20143
 548.3	20193
 548.9	20104
 549.4	20109
 550.0	20079
 550.5	20153
 551.0	20202
 551.6	20140
 552.1	20166
 552.6	20167
 553.2	20138
 553.7	20118
 554.3	20159
 554.8	20226
 555.3	20071
 555.9	20139
 556.4	20093
 556.9	20189
 557.5	20217
 558.0	20157
 558.6	20125
 559.1	20205
 559.6	20175
 560.2	20161
 560.7	20151
 561.3	20119
 561.8	20088
 562.3	20203
 562.9	20180
 563.4	20203
 563.9	20193
 564.5	20190
 565.0	20166
 565.6	20185
 566.1	20179
 566.6	20185
 567.2	20166
 567.7	20279
 568.2	20167
 568.8	20186
 569.3	20145
 569.9	20220
 570.4	20209
 570.9	20177
 571.5	20167
 572.0	20152
 572.5	20211
 573.1	20150
 573.6	20197
 574.1	20185
 574.7	20170
 575.2	20137
 575.8	20166
 576.3	20240
 576.8	20198
 577.4	20197
 577.9	20207
 578.4	20153
 579.0	20149
 579.5	20249
 580.1	20160
 580.6	20159
 581.1	20225
 581.7	20238
 582.2	20161
 582.7	20198
 583.3	20236
 583.8	20203
 584.3	20134
 584.9	20193
 585.4	20179
 586.0	20144
 586.5	20181
 587.0	20123
 587.6	20205
 588.1	20146
 588.6	20221
 589.2	20159
 589.7	20167
 590.2	20155
 590.8	20160
 591.3	20185
 591.9	20125
 592.4	20189
 592.9	20129
 593.5	20121
 594.0	20116
 594.5	20148
 595.1	20134
 595.6	20118
 596.1	20183
 596.7	20156
 597.2	20203
 597.7	20145
 598.3	20159
 598.8	20134
 599.3	20160
 599.9	20133
 600.4	20138
 601.0	20154
 601.5	20143
 602.0	20139
 602.6	20085
 603.1	20105
 603.6	20097
 604.2	20209
 604.7	20101
 605.2	20176
 605.8	20083
 606.3	20098
 606.8	20168
 607.4	20135
 607.9	20167
 608.4	20102
 609.0	20130
 609.5	20171
 610.0	20135
 610.6	20235
 611.1	20123
 611.6	20142
 612.2	20129
 612.7	20186
 613.2	20167
 613.8	20077
 614.3	20093
 614.8	20142
 615.4	20045
 615.9	20123
 616.4	20167
 617.0	20103
 617.5	20187
 618.0	20183
 618.6	20081
 619.1	20097
 619.6	20163
 620.2	20135
 620.7	20177
 621.2	20116
 621.8	20138
 622.3	20152
 622.8	20088
 623.4	20114
 623.9	20163
 624.4	20124
 625.0	20117
 625.5	20116
 626.0	20132
 626.6	20171
 627.1	20169
 627.6	20111
 628.2	20077
 628.7	20113
 629.2	20095
 629.8	20133
 630.3	20155
 630.8	20137
 631.4	20139
 631.9	20175
 632.4	20063
 632.9	20103
 633.5	20115
 634.0	20082
 634.5	20188
 635.1	20123
 635.6	20106
 636.1	20095
 636.7	20171
 637.2	20176
 637.7	20087
 638.3	20199
 638.8	20209
 639.3	20227
 639.8	20185
 640.4	20212
 640.9	20238
 641.4	20146
 642.0	20144
 642.5	20171
 643.0	20139
 643.6	20238
 644.1	20191
 644.6	20207
 645.1	20241
 645.7	20221
 646.2	20182
 646.7	20199
 647.3	20227
 647.8	20226
 648.3	20199
 648.9	20225
 649.4	20130
 649.9	20197
 650.4	20203
 651.0	20238
 651.5	20244
 652.0	20296
 652.6	20218
 653.1	20296
 653.6	20193
 654.1	20273
 654.7	20205
 655.2	20285
 655.7	20315
 656.3	20321
 656.8	20253
 657.3	20295
 657.8	20233
 658.4	20211
 658.9	20206
 659.4	20300
 659.9	20279
 660.5	20246
 661.0	20299
 661.5	20334
 662.1	20287
 662.6	20293
 663.1	20246
 663.6	20330
 664.2	20287
 664.7	20250
 665.2	20171
 665.7	20298
 666.3	20271
 666.8	20282
 667.3	20286
 667.8	20245
 668.4	20283
 668.9	20290
 669.4	20275
 669.9	20314
 670.5	20250
 671.0	20274
 671.5	20223
 672.0	20307
 672.6	20308
 673.1	20339
 673.6	20252
 674.1	20296
 674.7	20285
 675.2	20348
 675.7	20199
 676.2	20221
 676.8	20273
 677.3	20307
 677.8	20225
 678.3	20359
 678.9	20296
 679.4	20243
 679.9	20311
 680.4	20324
 681.0	20287
 681.5	20334
 682.0	20304
 682.5	20331
 683.1	20245
 683.6	20309
 684.1	20249
 684.6	20363
 685.1	20297
 685.7	20328
 686.2	20298
 686.7	20264
 687.2	20252
 687.8	20336
 688.3	20267
 688.8	20299
 689.3	20242
 689.8	20276
 690.4	20274
 690.9	20283
 691.4	20267
 691.9	20310
 692.4	20262
 693.0	20337
 693.5	20295
 694.0	20283
 694.5	20273
 695.1	20254
 695.6	20213
 696.1	20290
 696.6	20273
 697.1	20295
 697.7	20325
 698.2	20256
 698.7	20274
 699.2	20236
 699.7	20241
 700.3	20227
 700.8	20210
 701.3	20330
 701.8	20290
 702.3	20239
 702.8	20251
 703.4	20215
 703.9	20238
 704.4	20243
 704.9	20201
 705.4	20219
 706.0	20337
 706.5	20325
 707.0	20239
 707.5	20230
 708.0	20278
 708.5	20231
 709.1	20309
 709.6	20271
 710.1	20247
 710.6	20226
 711.1	20242
 711.7	20274
 712.2	20284
 712.7	20296
 713.2	20281
 713.7	20286
 714.2	20250
 714.8	20341
 715.3	20293
 715.8	20297
 716.3	20311
 716.8	20207
 717.3	20204
 717.8	20325
 718.4	20331
 718.9	20268
 719.4	20355
 719.9	20253
 720.4	20305
 720.9	20309
 721.4	20305
 722.0	20328
 722.5	20307
 723.0	20291
 723.5	20299
 724.0	20262
 724.5	20257
 725.0	20267
 725.6	20189
 726.1	20247
 726.6	20369
 727.1	20305
 727.6	20343
 728.1	20359
 728.6	20307
 729.1	20297
 729.7	20275
 730.2	20307
 730.7	20347
 731.2	20369
 731.7	20361
 732.2	20369
 732.7	20348
 733.2	20395
 733.8	20372
 734.3	20384
 734.8	20345
 735.3	20363
 735.8	20337
 736.3	20310
 736.8	20340
 737.3	20375
 737.8	20323
 738.4	20315
 738.9	20259
 739.4	20353
 739.9	20335
 740.4	20331
 740.9	20328
 741.4	20323
 741.9	20313
 742.4	20330
 742.9	20318
 743.4	20416
 744.0	20335
 744.5	20327
 745.0	20351
 745.5	20440
 746.0	20420
 746.5	20428
 747.0	20372
 747.5	20363
 748.0	20337
 748.5	20348
 749.0	20376
 749.5	20475
 750.0	20311
 750.5	20382
 751.1	20399
 751.6	20406
 752.1	20405
 752.6	20379
 753.1	20411
 753.6	20355
 754.1	20325
 754.6	20381
 755.1	20347
 755.6	20368
 756.1	20289
 756.6	20413
 757.1	20379
 757.6	20375
 758.1	20348
 758.6	20373
 759.1	20310
 759.6	20361
 760.1	20315
 760.7	20292
 761.2	20382
 761.7	20327
 762.2	20320
 762.7	20393
 763.2	20239
 763.7	20352
 764.2	20291
 764.7	20303
 765.2	20354
 765.7	20338
 766.2	20305
 766.7	20370
 767.2	20322
 767.7	20345
 768.2	20335
 768.7	20311
 769.2	20318
 769.7	20376
 770.2	20351
 770.7	20359
 771.2	20348
 771.7	20325
 772.2	20351
 772.7	20407
 773.2	20394
 773.7	20349
 774.2	20300
 774.7	20362
 775.2	20353
 775.7	20338
 776.2	20333
 776.7	20371
 777.2	20294
 777.7	20378
 778.2	20368
 778.7	20409
 779.2	20429
 779.7	20464
 780.2	20301
 780.7	20375
 781.2	20389
 781.7	20467
 782.2	20388
 782.6	20471
 783.1	20485
 783.6	20443
 784.1	20421
 784.6	20405
 785.1	20414
 785.6	20405
 786.1	20453
 786.6	20472
 787.1	20415
 787.6	20426
 788.1	20428
 788.6	20406
 789.1	20413
 789.6	20461
 790.1	20486
 790.6	20487
 791.1	20389
 791.6	20401
 792.0	20432
 792.5	20481
 793.0	20465
 793.5	20473
 794.0	20410
 794.5	20517
 795.0	20507
 795.5	20479
 796.0	20501
 796.5	20460
 797.0	20495
 797.5	20547
 798.0	20405
 798.4	20459
 798.9	20455
 799.4	20485
 799.9	20505
 800.4	20368
 800.9	20486
 801.4	20570
 801.9	20544
 802.4	20476
 802.9	20562
 803.3	20567
 803.8	20547
 804.3	20502
 804.8	20581
 805.3	20544
 805.8	20543
 806.3	20556
 806.8	20547
 807.2	20561
 807.7	20542
 808.2	20581
 808.7	20500
 809.2	20529
 809.7	20473
 810.2	20549
 810.7	20495
 811.1	20529
 811.6	20545
 812.1	20508
 812.6	20471
 813.1	20534
 813.6	20566
 814.1	20545
 814.5	20516
 815.0	20546
 815.5	20517
 816.0	20473
 816.5	20554
 817.0	20516
 817.4	20508
 817.9	20549
 818.4	20488
 818.9	20582
 819.4	20541
 819.9	20526
 820.3	20499
 820.8	20517
 821.3	20523
 821.8	20551
 822.3	20495
 822.7	20477
 823.2	20548
 823.7	20502
 824.2	20515
 824.7	20496
 825.2	20522
 825.6	20503
 826.1	20502
 826.6	20565
 827.1	20554
 827.6	20552
 828.0	20489
 828.5	20473
 829.0	20511
 829.5	20455
 829.9	20469
 830.4	20543
 830.9	20527
 831.4	20555
 831.9	20513
 832.3	20603
 832.8	20545
 833.3	20544
 833.8	20632
 834.2	20630
 834.7	20465
 835.2	20569
 835.7	20572
 836.1	20571
 836.6	20559
 837.1	20566
 837.6	20578
 838.0	20626
 838.5	20653
 839.0	20654
 839.5	20640
 839.9	20563
 840.4	20571
 840.9	20541
 841.4	20587
 841.8	20621
 842.3	20633
 842.8	20658
 843.3	20659
 843.7	20559
 844.2	20543
 844.7	20641
 845.1	20609
 845.6	20533
 846.1	20567
 846.6	20595
 847.0	20494
 847.5	20556
 848.0	20543
 848.4	20588
 848.9	20559
 849.4	20545
 849.8	20574
 850.3	20569
 850.8	20625
 851.3	20594
 851.7	20587
 852.2	20597
 852.7	20596
 853.1	20571
 853.6	20535
 854.1	20573
 854.5	20547
 855.0	20535
 855.5	20535
 855.9	20613
 856.4	20600
 856.9	20513
 857.3	20580
 857.8	20555
 858.3	20606
 858.7	20564
 859.2	20590
 859.7	20575
 860.1	20637
 860.6	20620
 861.1	20562
 861.5	20617
 862.0	20627
 862.4	20607
 862.9	20575
 863.4	20611
 863.8	20615
 864.3	20626
 864.8	20543
 865.2	20599
 865.7	20626
 866.1	20653
 866.6	20569
 867.1	20655
 867.5	20638
 868.0	20620
 868.5	20579
 868.9	20590
 869.4	20707
 869.8	20662
 870.3	20618
 870.8	20691
 871.2	20638
 871.7	20632
 872.1	20576
 872.6	20629
 873.0	20607
 873.5	20684
 874.0	20678
 874.4	20568
 874.9	20630
 875.3	20631
 875.8	20609
 876.2	20507
 876.7	20513
 877.2	20334
 877.6	20001
 878.1	19481
