#xlabel Wavelength (nm)
#ylabel Spectrometer Array Counts
#title Exposure time is 11000 ms
## lambda	counts
 349.8	18686
 350.3	18954
 350.8	19217
 351.3	19428
 351.9	19555
 352.4	19690
 352.9	19774
 353.4	19744
 354.0	19752
 354.5	19791
 355.0	19794
 355.5	19807
 356.0	19762
 356.6	19717
 357.1	19772
 357.6	19733
 358.1	19761
 358.7	19699
 359.2	19710
 359.7	19728
 360.2	19763
 360.8	19726
 361.3	19822
 361.8	19756
 362.3	19783
 362.9	19735
 363.4	19813
 363.9	19816
 364.4	19841
 364.9	19733
 365.5	19809
 366.0	19791
 366.5	19737
 367.0	19785
 367.6	19810
 368.1	19807
 368.6	19735
 369.1	19791
 369.7	19844
 370.2	19753
 370.7	19747
 371.2	19797
 371.8	19849
 372.3	19759
 372.8	19837
 373.3	19843
 373.9	19780
 374.4	19800
 374.9	19847
 375.5	19719
 376.0	19848
 376.5	19802
 377.0	19829
 377.6	19762
 378.1	19840
 378.6	19762
 379.1	19765
 379.7	19737
 380.2	19809
 380.7	19804
 381.2	19758
 381.8	19744
 382.3	19779
 382.8	19754
 383.4	19801
 383.9	19740
 384.4	19897
 384.9	19801
 385.5	19815
 386.0	19806
 386.5	19881
 387.1	19803
 387.6	19825
 388.1	19817
 388.6	19829
 389.2	19811
 389.7	19827
 390.2	19799
 390.8	19879
 391.3	19845
 391.8	19831
 392.3	19801
 392.9	19788
 393.4	19774
 393.9	19837
 394.5	19828
 395.0	19771
 395.5	19779
 396.0	19771
 396.6	19730
 397.1	19822
 397.6	19820
 398.2	19815
 398.7	19805
 399.2	19900
 399.8	19759
 400.3	19828
 400.8	19875
 401.3	19835
 401.9	19852
 402.4	19861
 402.9	19846
 403.5	19866
 404.0	19852
 404.5	19786
 405.1	19783
 405.6	19878
 406.1	19836
 406.7	19834
 407.2	19832
 407.7	19906
 408.2	19885
 408.8	19874
 409.3	19896
 409.8	19936
 410.4	19887
 410.9	19884
 411.4	19819
 412.0	19874
 412.5	19919
 413.0	19855
 413.6	19895
 414.1	19844
 414.6	19868
 415.2	19910
 415.7	19835
 416.2	19880
 416.8	19855
 417.3	19832
 417.8	19845
 418.4	19931
 418.9	19855
 419.4	19987
 420.0	19858
 420.5	19915
 421.0	19848
 421.5	19932
 422.1	19895
 422.6	19943
 423.1	19966
 423.7	19925
 424.2	19902
 424.7	19935
 425.3	19904
 425.8	19921
 426.3	19891
 426.9	19952
 427.4	19883
 427.9	19997
 428.5	19921
 429.0	19957
 429.6	19893
 430.1	19969
 430.6	19953
 431.2	19875
 431.7	19963
 432.2	19910
 432.8	19874
 433.3	19973
 433.8	19965
 434.4	19911
 434.9	19921
 435.4	19957
 436.0	19917
 436.5	19901
 437.0	19973
 437.6	19937
 438.1	19987
 438.6	19979
 439.2	20000
 439.7	19988
 440.2	19919
 440.8	19953
 441.3	19949
 441.8	19951
 442.4	19923
 442.9	19949
 443.5	19988
 444.0	19977
 444.5	19998
 445.1	19897
 445.6	19931
 446.1	19954
 446.7	19961
 447.2	19962
 447.7	19943
 448.3	20001
 448.8	19949
 449.3	19979
 449.9	19900
 450.4	19988
 450.9	20010
 451.5	19991
 452.0	19941
 452.6	19945
 453.1	19984
 453.6	19980
 454.2	19845
 454.7	19910
 455.2	19918
 455.8	19954
 456.3	19883
 456.8	20007
 457.4	19913
 457.9	19917
 458.5	19962
 459.0	19918
 459.5	19952
 460.1	19900
 460.6	19949
 461.1	19933
 461.7	19983
 462.2	19924
 462.7	19970
 463.3	19890
 463.8	19970
 464.4	20031
 464.9	19965
 465.4	20030
 466.0	19913
 466.5	19986
 467.0	19903
 467.6	19969
 468.1	20051
 468.7	19965
 469.2	19882
 469.7	19970
 470.3	19932
 470.8	19965
 471.3	19929
 471.9	19873
 472.4	19920
 473.0	19952
 473.5	19959
 474.0	19939
 474.6	19934
 475.1	19918
 475.6	19989
 476.2	19987
 476.7	19954
 477.3	20004
 477.8	19937
 478.3	19850
 478.9	20054
 479.4	19926
 479.9	19930
 480.5	19908
 481.0	19920
 481.6	19932
 482.1	19987
 482.6	19960
 483.2	19950
 483.7	20064
 484.2	19986
 484.8	19796
 485.3	19898
 485.9	19967
 486.4	19915
 486.9	19929
 487.5	19875
 488.0	19874
 488.6	19927
 489.1	19928
 489.6	19981
 490.2	19965
 490.7	19915
 491.2	19879
 491.8	19931
 492.3	19875
 492.9	19926
 493.4	19933
 493.9	19948
 494.5	19949
 495.0	20023
 495.6	19929
 496.1	19949
 496.6	20008
 497.2	19921
 497.7	19885
 498.2	19981
 498.8	20009
 499.3	19910
 499.9	19963
 500.4	19966
 500.9	19938
 501.5	19923
 502.0	19981
 502.6	19959
 503.1	20034
 503.6	19987
 504.2	19919
 504.7	19915
 505.2	19967
 505.8	19941
 506.3	20009
 506.9	19995
 507.4	19939
 507.9	19898
 508.5	19913
 509.0	19939
 509.6	19991
 510.1	19935
 510.6	19961
 511.2	19967
 511.7	19933
 512.2	19986
 512.8	19994
 513.3	19943
 513.9	19920
 514.4	19976
 514.9	20047
 515.5	19935
 516.0	20009
 516.6	19978
 517.1	20031
 517.6	20018
 518.2	19997
 518.7	19930
 519.3	19995
 519.8	20043
 520.3	20046
 520.9	20002
 521.4	20020
 521.9	20085
 522.5	20009
 523.0	20044
 523.6	20085
 524.1	19931
 524.6	19987
 525.2	20015
 525.7	20047
 526.3	19955
 526.8	20054
 527.3	19992
 527.9	20006
 528.4	19983
 528.9	20029
 529.5	20042
 530.0	20008
 530.6	20051
 531.1	20043
 531.6	19935
 532.2	20050
 532.7	19985
 533.3	20003
 533.8	20120
 534.3	20133
 534.9	20115
 535.4	20036
 536.0	20098
 536.5	20127
 537.0	20071
 537.6	20075
 538.1	20117
 538.6	20121
 539.2	20047
 539.7	20044
 540.3	20147
 540.8	20097
 541.3	20047
 541.9	20078
 542.4	20069
 543.0	20131
 543.5	20089
 544.0	20063
 544.6	20119
 545.1	20118
 545.6	20159
 546.2	20141
 546.7	20050
 547.3	20110
 547.8	20092
 548.3	20147
 548.9	20057
 549.4	20061
 550.0	20032
 550.5	20102
 551.0	20155
 551.6	20096
 552.1	20114
 552.6	20113
 553.2	20093
 553.7	20062
 554.3	20113
 554.8	20176
 555.3	20017
 555.9	20092
 556.4	20045
 556.9	20141
 557.5	20161
 558.0	20108
 558.6	20077
 559.1	20153
 559.6	20127
 560.2	20117
 560.7	20103
 561.3	20074
 561.8	20036
 562.3	20157
 562.9	20128
 563.4	20154
 563.9	20139
 564.5	20136
 565.0	20115
 565.6	20139
 566.1	20132
 566.6	20137
 567.2	20117
 567.7	20225
 568.2	20117
 568.8	20134
 569.3	20100
 569.9	20173
 570.4	20159
 570.9	20127
 571.5	20116
 572.0	20103
 572.5	20157
 573.1	20095
 573.6	20146
 574.1	20139
 574.7	20116
 575.2	20089
 575.8	20123
 576.3	20183
 576.8	20151
 577.4	20147
 577.9	20155
 578.4	20104
 579.0	20103
 579.5	20195
 580.1	20109
 580.6	20105
 581.1	20175
 581.7	20186
 582.2	20110
 582.7	20149
 583.3	20185
 583.8	20145
 584.3	20087
 584.9	20137
 585.4	20131
 586.0	20097
 586.5	20130
 587.0	20079
 587.6	20153
 588.1	20096
 588.6	20171
 589.2	20103
 589.7	20119
 590.2	20105
 590.8	20105
 591.3	20131
 591.9	20073
 592.4	20142
 592.9	20082
 593.5	20071
 594.0	20073
 594.5	20103
 595.1	20086
 595.6	20069
 596.1	20138
 596.7	20107
 597.2	20158
 597.7	20099
 598.3	20110
 598.8	20087
 599.3	20106
 599.9	20089
 600.4	20085
 601.0	20101
 601.5	20095
 602.0	20089
 602.6	20037
 603.1	20047
 603.6	20048
 604.2	20158
 604.7	20057
 605.2	20125
 605.8	20032
 606.3	20051
 606.8	20121
 607.4	20085
 607.9	20120
 608.4	20051
 609.0	20082
 609.5	20123
 610.0	20089
 610.6	20178
 611.1	20073
 611.6	20088
 612.2	20081
 612.7	20136
 613.2	20115
 613.8	20024
 614.3	20046
 614.8	20097
 615.4	20002
 615.9	20076
 616.4	20121
 617.0	20050
 617.5	20135
 618.0	20134
 618.6	20029
 619.1	20052
 619.6	20115
 620.2	20082
 620.7	20125
 621.2	20068
 621.8	20092
 622.3	20103
 622.8	20040
 623.4	20062
 623.9	20113
 624.4	20076
 625.0	20071
 625.5	20071
 626.0	20082
 626.6	20122
 627.1	20120
 627.6	20063
 628.2	20030
 628.7	20061
 629.2	20045
 629.8	20086
 630.3	20109
 630.8	20092
 631.4	20085
 631.9	20117
 632.4	20014
 632.9	20055
 633.5	20065
 634.0	20029
 634.5	20139
 635.1	20074
 635.6	20057
 636.1	20051
 636.7	20126
 637.2	20127
 637.7	20039
 638.3	20153
 638.8	20153
 639.3	20176
 639.8	20135
 640.4	20159
 640.9	20188
 641.4	20097
 642.0	20099
 642.5	20125
 643.0	20096
 643.6	20187
 644.1	20142
 644.6	20155
 645.1	20194
 645.7	20171
 646.2	20135
 646.7	20150
 647.3	20177
 647.8	20175
 648.3	20152
 648.9	20177
 649.4	20084
 649.9	20153
 650.4	20159
 651.0	20191
 651.5	20195
 652.0	20247
 652.6	20175
 653.1	20249
 653.6	20144
 654.1	20222
 654.7	20161
 655.2	20235
 655.7	20260
 656.3	20270
 656.8	20200
 657.3	20248
 657.8	20190
 658.4	20163
 658.9	20166
 659.4	20254
 659.9	20234
 660.5	20201
 661.0	20243
 661.5	20289
 662.1	20237
 662.6	20239
 663.1	20203
 663.6	20281
 664.2	20238
 664.7	20203
 665.2	20127
 665.7	20252
 666.3	20221
 666.8	20231
 667.3	20238
 667.8	20195
 668.4	20233
 668.9	20239
 669.4	20230
 669.9	20269
 670.5	20198
 671.0	20225
 671.5	20175
 672.0	20246
 672.6	20259
 673.1	20290
 673.6	20199
 674.1	20244
 674.7	20236
 675.2	20297
 675.7	20150
 676.2	20171
 676.8	20224
 677.3	20260
 677.8	20177
 678.3	20308
 678.9	20243
 679.4	20187
 679.9	20259
 680.4	20273
 681.0	20238
 681.5	20280
 682.0	20257
 682.5	20287
 683.1	20200
 683.6	20265
 684.1	20202
 684.6	20316
 685.1	20250
 685.7	20285
 686.2	20249
 686.7	20217
 687.2	20207
 687.8	20287
 688.3	20220
 688.8	20256
 689.3	20191
 689.8	20226
 690.4	20225
 690.9	20227
 691.4	20221
 691.9	20260
 692.4	20210
 693.0	20291
 693.5	20251
 694.0	20234
 694.5	20227
 695.1	20207
 695.6	20166
 696.1	20245
 696.6	20222
 697.1	20245
 697.7	20275
 698.2	20207
 698.7	20228
 699.2	20188
 699.7	20198
 700.3	20183
 700.8	20161
 701.3	20286
 701.8	20243
 702.3	20188
 702.8	20200
 703.4	20166
 703.9	20190
 704.4	20192
 704.9	20159
 705.4	20170
 706.0	20285
 706.5	20275
 707.0	20193
 707.5	20183
 708.0	20227
 708.5	20181
 709.1	20261
 709.6	20224
 710.1	20202
 710.6	20178
 711.1	20194
 711.7	20227
 712.2	20235
 712.7	20248
 713.2	20226
 713.7	20238
 714.2	20204
 714.8	20294
 715.3	20237
 715.8	20247
 716.3	20263
 716.8	20164
 717.3	20154
 717.8	20275
 718.4	20285
 718.9	20220
 719.4	20304
 719.9	20207
 720.4	20257
 720.9	20261
 721.4	20260
 722.0	20279
 722.5	20255
 723.0	20248
 723.5	20252
 724.0	20213
 724.5	20204
 725.0	20221
 725.6	20143
 726.1	20193
 726.6	20319
 727.1	20255
 727.6	20291
 728.1	20309
 728.6	20261
 729.1	20249
 729.7	20234
 730.2	20266
 730.7	20305
 731.2	20324
 731.7	20315
 732.2	20315
 732.7	20299
 733.2	20351
 733.8	20324
 734.3	20334
 734.8	20297
 735.3	20316
 735.8	20293
 736.3	20261
 736.8	20293
 737.3	20328
 737.8	20276
 738.4	20268
 738.9	20211
 739.4	20301
 739.9	20289
 740.4	20285
 740.9	20275
 741.4	20279
 741.9	20274
 742.4	20287
 742.9	20270
 743.4	20373
 744.0	20288
 744.5	20283
 745.0	20306
 745.5	20390
 746.0	20371
 746.5	20377
 747.0	20320
 747.5	20311
 748.0	20288
 748.5	20300
 749.0	20329
 749.5	20429
 750.0	20263
 750.5	20333
 751.1	20353
 751.6	20357
 752.1	20359
 752.6	20329
 753.1	20368
 753.6	20311
 754.1	20280
 754.6	20338
 755.1	20302
 755.6	20323
 756.1	20243
 756.6	20360
 757.1	20330
 757.6	20323
 758.1	20302
 758.6	20331
 759.1	20262
 759.6	20311
 760.1	20275
 760.7	20247
 761.2	20331
 761.7	20283
 762.2	20278
 762.7	20343
 763.2	20197
 763.7	20306
 764.2	20243
 764.7	20253
 765.2	20303
 765.7	20290
 766.2	20254
 766.7	20316
 767.2	20273
 767.7	20297
 768.2	20288
 768.7	20265
 769.2	20268
 769.7	20331
 770.2	20305
 770.7	20310
 771.2	20298
 771.7	20276
 772.2	20301
 772.7	20359
 773.2	20344
 773.7	20296
 774.2	20253
 774.7	20313
 775.2	20303
 775.7	20293
 776.2	20291
 776.7	20324
 777.2	20244
 777.7	20331
 778.2	20327
 778.7	20363
 779.2	20381
 779.7	20420
 780.2	20252
 780.7	20329
 781.2	20340
 781.7	20425
 782.2	20338
 782.6	20420
 783.1	20437
 783.6	20400
 784.1	20368
 784.6	20357
 785.1	20369
 785.6	20365
 786.1	20406
 786.6	20425
 787.1	20364
 787.6	20376
 788.1	20377
 788.6	20358
 789.1	20365
 789.6	20411
 790.1	20436
 790.6	20437
 791.1	20342
 791.6	20357
 792.0	20389
 792.5	20429
 793.0	20418
 793.5	20421
 794.0	20359
 794.5	20465
 795.0	20457
 795.5	20431
 796.0	20454
 796.5	20410
 797.0	20444
 797.5	20496
 798.0	20357
 798.4	20415
 798.9	20406
 799.4	20436
 799.9	20459
 800.4	20322
 800.9	20438
 801.4	20525
 801.9	20500
 802.4	20430
 802.9	20515
 803.3	20521
 803.8	20499
 804.3	20457
 804.8	20531
 805.3	20493
 805.8	20494
 806.3	20508
 806.8	20503
 807.2	20514
 807.7	20488
 808.2	20532
 808.7	20460
 809.2	20481
 809.7	20429
 810.2	20498
 810.7	20450
 811.1	20481
 811.6	20490
 812.1	20457
 812.6	20425
 813.1	20484
 813.6	20514
 814.1	20500
 814.5	20464
 815.0	20499
 815.5	20470
 816.0	20426
 816.5	20508
 817.0	20465
 817.4	20458
 817.9	20499
 818.4	20435
 818.9	20540
 819.4	20484
 819.9	20473
 820.3	20452
 820.8	20467
 821.3	20475
 821.8	20510
 822.3	20446
 822.7	20428
 823.2	20500
 823.7	20454
 824.2	20469
 824.7	20447
 825.2	20475
 825.6	20463
 826.1	20459
 826.6	20517
 827.1	20505
 827.6	20500
 828.0	20441
 828.5	20424
 829.0	20466
 829.5	20414
 829.9	20419
 830.4	20493
 830.9	20478
 831.4	20509
 831.9	20467
 832.3	20555
 832.8	20493
 833.3	20500
 833.8	20583
 834.2	20583
 834.7	20419
 835.2	20523
 835.7	20530
 836.1	20525
 836.6	20511
 837.1	20521
 837.6	20535
 838.0	20574
 838.5	20605
 839.0	20608
 839.5	20595
 839.9	20516
 840.4	20529
 840.9	20496
 841.4	20539
 841.8	20572
 842.3	20581
 842.8	20606
 843.3	20609
 843.7	20508
 844.2	20497
 844.7	20594
 845.1	20563
 845.6	20485
 846.1	20520
 846.6	20547
 847.0	20453
 847.5	20510
 848.0	20495
 848.4	20542
 848.9	20509
 849.4	20497
 849.8	20525
 850.3	20520
 850.8	20579
 851.3	20543
 851.7	20540
 852.2	20549
 852.7	20544
 853.1	20523
 853.6	20479
 854.1	20535
 854.5	20494
 855.0	20491
 855.5	20489
 855.9	20559
 856.4	20558
 856.9	20458
 857.3	20533
 857.8	20511
 858.3	20559
 858.7	20520
 859.2	20538
 859.7	20531
 860.1	20590
 860.6	20574
 861.1	20510
 861.5	20573
 862.0	20580
 862.4	20559
 862.9	20526
 863.4	20563
 863.8	20572
 864.3	20577
 864.8	20502
 865.2	20554
 865.7	20581
 866.1	20598
 866.6	20519
 867.1	20606
 867.5	20594
 868.0	20575
 868.5	20531
 868.9	20536
 869.4	20652
 869.8	20610
 870.3	20566
 870.8	20642
 871.2	20591
 871.7	20591
 872.1	20551
 872.6	20610
 873.0	20599
 873.5	20696
 874.0	20692
 874.4	20589
 874.9	20632
 875.3	20593
 875.8	20493
 876.2	20277
 876.7	20123
 877.2	19787
 877.6	19379
 878.1	19003
