#xlabel Wavelength (nm)
#ylabel Spectrometer Array Counts
#title Exposure time is 12000 ms
## lambda	counts
 349.8	20796
 350.3	21059
 350.8	21327
 351.3	21560
 351.9	21702
 352.4	21857
 352.9	21961
 353.4	21950
 354.0	21974
 354.5	22047
 355.0	22060
 355.5	22086
 356.0	22048
 356.6	22008
 357.1	22055
 357.6	22031
 358.1	22071
 358.7	22000
 359.2	22025
 359.7	22043
 360.2	22091
 360.8	22051
 361.3	22157
 361.8	22097
 362.3	22137
 362.9	22093
 363.4	22185
 363.9	22187
 364.4	22221
 364.9	22124
 365.5	22213
 366.0	22191
 366.5	22142
 367.0	22200
 367.6	22231
 368.1	22244
 368.6	22170
 369.1	22234
 369.7	22303
 370.2	22207
 370.7	22224
 371.2	22279
 371.8	22337
 372.3	22258
 372.8	22348
 373.3	22369
 373.9	22311
 374.4	22335
 374.9	22395
 375.5	22278
 376.0	22423
 376.5	22383
 377.0	22422
 377.6	22379
 378.1	22467
 378.6	22395
 379.1	22419
 379.7	22404
 380.2	22499
 380.7	22505
 381.2	22472
 381.8	22459
 382.3	22508
 382.8	22489
 383.4	22546
 383.9	22499
 384.4	22663
 384.9	22565
 385.5	22585
 386.0	22600
 386.5	22677
 387.1	22607
 387.6	22632
 388.1	22634
 388.6	22661
 389.2	22655
 389.7	22693
 390.2	22672
 390.8	22792
 391.3	22767
 391.8	22770
 392.3	22765
 392.9	22769
 393.4	22773
 393.9	22865
 394.5	22881
 395.0	22839
 395.5	22874
 396.0	22878
 396.6	22852
 397.1	22963
 397.6	22968
 398.2	22967
 398.7	22964
 399.2	23088
 399.8	22946
 400.3	23015
 400.8	23068
 401.3	23041
 401.9	23053
 402.4	23087
 402.9	23076
 403.5	23119
 404.0	23107
 404.5	23063
 405.1	23087
 405.6	23205
 406.1	23187
 406.7	23207
 407.2	23229
 407.7	23329
 408.2	23335
 408.8	23353
 409.3	23396
 409.8	23449
 410.4	23425
 410.9	23448
 411.4	23395
 412.0	23482
 412.5	23546
 413.0	23497
 413.6	23554
 414.1	23522
 414.6	23549
 415.2	23615
 415.7	23562
 416.2	23621
 416.8	23610
 417.3	23603
 417.8	23637
 418.4	23746
 418.9	23684
 419.4	23844
 420.0	23723
 420.5	23805
 421.0	23737
 421.5	23847
 422.1	23823
 422.6	23893
 423.1	23923
 423.7	23894
 424.2	23887
 424.7	23928
 425.3	23906
 425.8	23939
 426.3	23924
 426.9	23999
 427.4	23937
 427.9	24077
 428.5	24021
 429.0	24077
 429.6	24043
 430.1	24151
 430.6	24166
 431.2	24122
 431.7	24251
 432.2	24235
 432.8	24237
 433.3	24378
 433.8	24404
 434.4	24394
 434.9	24426
 435.4	24507
 436.0	24498
 436.5	24520
 437.0	24602
 437.6	24576
 438.1	24651
 438.6	24668
 439.2	24699
 439.7	24701
 440.2	24635
 440.8	24670
 441.3	24675
 441.8	24668
 442.4	24630
 442.9	24669
 443.5	24713
 444.0	24705
 444.5	24731
 445.1	24631
 445.6	24676
 446.1	24714
 446.7	24745
 447.2	24779
 447.7	24778
 448.3	24879
 448.8	24865
 449.3	24921
 449.9	24885
 450.4	25045
 450.9	25105
 451.5	25145
 452.0	25155
 452.6	25197
 453.1	25307
 453.6	25343
 454.2	25246
 454.7	25352
 455.2	25410
 455.8	25491
 456.3	25444
 456.8	25595
 457.4	25532
 457.9	25550
 458.5	25602
 459.0	25565
 459.5	25620
 460.1	25569
 460.6	25616
 461.1	25604
 461.7	25659
 462.2	25612
 462.7	25645
 463.3	25563
 463.8	25647
 464.4	25719
 464.9	25659
 465.4	25748
 466.0	25651
 466.5	25745
 467.0	25679
 467.6	25765
 468.1	25892
 468.7	25841
 469.2	25775
 469.7	25905
 470.3	25903
 470.8	25971
 471.3	25973
 471.9	25954
 472.4	26035
 473.0	26100
 473.5	26143
 474.0	26159
 474.6	26184
 475.1	26207
 475.6	26306
 476.2	26335
 476.7	26321
 477.3	26401
 477.8	26351
 478.3	26289
 478.9	26527
 479.4	26434
 479.9	26457
 480.5	26467
 481.0	26513
 481.6	26560
 482.1	26655
 482.6	26646
 483.2	26681
 483.7	26814
 484.2	26787
 484.8	26636
 485.3	26757
 485.9	26850
 486.4	26839
 486.9	26886
 487.5	26845
 488.0	26877
 488.6	26963
 489.1	26993
 489.6	27060
 490.2	27069
 490.7	27043
 491.2	27009
 491.8	27091
 492.3	27028
 492.9	27095
 493.4	27100
 493.9	27123
 494.5	27125
 495.0	27185
 495.6	27103
 496.1	27105
 496.6	27162
 497.2	27062
 497.7	27037
 498.2	27121
 498.8	27128
 499.3	27039
 499.9	27105
 500.4	27111
 500.9	27101
 501.5	27104
 502.0	27205
 502.6	27198
 503.1	27322
 503.6	27304
 504.2	27291
 504.7	27331
 505.2	27427
 505.8	27453
 506.3	27603
 506.9	27659
 507.4	27666
 507.9	27683
 508.5	27769
 509.0	27871
 509.6	27998
 510.1	28009
 510.6	28089
 511.2	28153
 511.7	28186
 512.2	28293
 512.8	28352
 513.3	28343
 513.9	28351
 514.4	28440
 514.9	28549
 515.5	28443
 516.0	28538
 516.6	28481
 517.1	28535
 517.6	28501
 518.2	28467
 518.7	28383
 519.3	28426
 519.8	28433
 520.3	28397
 520.9	28329
 521.4	28323
 521.9	28356
 522.5	28237
 523.0	28235
 523.6	28263
 524.1	28092
 524.6	28138
 525.2	28151
 525.7	28204
 526.3	28130
 526.8	28234
 527.3	28188
 527.9	28235
 528.4	28229
 528.9	28315
 529.5	28357
 530.0	28373
 530.6	28467
 531.1	28503
 531.6	28449
 532.2	28611
 532.7	28621
 533.3	28715
 533.8	28890
 534.3	28977
 534.9	29021
 535.4	29017
 536.0	29144
 536.5	29226
 537.0	29242
 537.6	29309
 538.1	29400
 538.6	29463
 539.2	29433
 539.7	29496
 540.3	29635
 540.8	29612
 541.3	29591
 541.9	29651
 542.4	29661
 543.0	29743
 543.5	29708
 544.0	29678
 544.6	29724
 545.1	29742
 545.6	29767
 546.2	29752
 546.7	29637
 547.3	29697
 547.8	29663
 548.3	29714
 548.9	29598
 549.4	29594
 550.0	29554
 550.5	29616
 551.0	29652
 551.6	29593
 552.1	29599
 552.6	29602
 553.2	29541
 553.7	29521
 554.3	29566
 554.8	29641
 555.3	29478
 555.9	29545
 556.4	29529
 556.9	29655
 557.5	29687
 558.0	29654
 558.6	29640
 559.1	29727
 559.6	29724
 560.2	29750
 560.7	29781
 561.3	29757
 561.8	29741
 562.3	29900
 562.9	29897
 563.4	29959
 563.9	29947
 564.5	29982
 565.0	29979
 565.6	30006
 566.1	30015
 566.6	30021
 567.2	30019
 567.7	30125
 568.2	30059
 568.8	30065
 569.3	30051
 569.9	30116
 570.4	30091
 570.9	30075
 571.5	30077
 572.0	30081
 572.5	30146
 573.1	30095
 573.6	30166
 574.1	30161
 574.7	30178
 575.2	30163
 575.8	30224
 576.3	30325
 576.8	30299
 577.4	30325
 577.9	30370
 578.4	30350
 579.0	30379
 579.5	30524
 580.1	30455
 580.6	30503
 581.1	30600
 581.7	30656
 582.2	30609
 582.7	30672
 583.3	30742
 583.8	30731
 584.3	30699
 584.9	30777
 585.4	30793
 586.0	30783
 586.5	30838
 587.0	30822
 587.6	30918
 588.1	30879
 588.6	30950
 589.2	30913
 589.7	30935
 590.2	30927
 590.8	30918
 591.3	30943
 591.9	30877
 592.4	30936
 592.9	30859
 593.5	30827
 594.0	30801
 594.5	30812
 595.1	30755
 595.6	30700
 596.1	30739
 596.7	30695
 597.2	30714
 597.7	30619
 598.3	30619
 598.8	30581
 599.3	30561
 599.9	30499
 600.4	30480
 601.0	30473
 601.5	30453
 602.0	30424
 602.6	30359
 603.1	30387
 603.6	30395
 604.2	30496
 604.7	30399
 605.2	30487
 605.8	30398
 606.3	30433
 606.8	30511
 607.4	30521
 607.9	30590
 608.4	30541
 609.0	30602
 609.5	30664
 610.0	30660
 610.6	30779
 611.1	30715
 611.6	30793
 612.2	30818
 612.7	30903
 613.2	30938
 613.8	30885
 614.3	30965
 614.8	31040
 615.4	31017
 615.9	31161
 616.4	31255
 617.0	31242
 617.5	31372
 618.0	31437
 618.6	31430
 619.1	31511
 619.6	31628
 620.2	31694
 620.7	31819
 621.2	31832
 621.8	31914
 622.3	31995
 622.8	32007
 623.4	32075
 623.9	32171
 624.4	32173
 625.0	32195
 625.5	32196
 626.0	32226
 626.6	32298
 627.1	32276
 627.6	32218
 628.2	32185
 628.7	32234
 629.2	32211
 629.8	32220
 630.3	32199
 630.8	32173
 631.4	32117
 631.9	32115
 632.4	31964
 632.9	31951
 633.5	31916
 634.0	31841
 634.5	31863
 635.1	31769
 635.6	31742
 636.1	31676
 636.7	31674
 637.2	31646
 637.7	31500
 638.3	31585
 638.8	31539
 639.3	31537
 639.8	31437
 640.4	31433
 640.9	31442
 641.4	31338
 642.0	31295
 642.5	31295
 643.0	31259
 643.6	31350
 644.1	31300
 644.6	31311
 645.1	31328
 645.7	31327
 646.2	31273
 646.7	31297
 647.3	31331
 647.8	31352
 648.3	31325
 648.9	31383
 649.4	31295
 649.9	31381
 650.4	31418
 651.0	31483
 651.5	31511
 652.0	31593
 652.6	31557
 653.1	31660
 653.6	31593
 654.1	31679
 654.7	31660
 655.2	31779
 655.7	31831
 656.3	31867
 656.8	31843
 657.3	31922
 657.8	31887
 658.4	31922
 658.9	31959
 659.4	32050
 659.9	32066
 660.5	32052
 661.0	32104
 661.5	32163
 662.1	32139
 662.6	32158
 663.1	32128
 663.6	32222
 664.2	32169
 664.7	32149
 665.2	32075
 665.7	32207
 666.3	32155
 666.8	32157
 667.3	32159
 667.8	32115
 668.4	32134
 668.9	32143
 669.4	32110
 669.9	32128
 670.5	32046
 671.0	32055
 671.5	32001
 672.0	32038
 672.6	32023
 673.1	32057
 673.6	31946
 674.1	31959
 674.7	31945
 675.2	31978
 675.7	31833
 676.2	31813
 676.8	31877
 677.3	31869
 677.8	31784
 678.3	31881
 678.9	31796
 679.4	31727
 679.9	31793
 680.4	31770
 681.0	31723
 681.5	31751
 682.0	31691
 682.5	31735
 683.1	31629
 683.6	31654
 684.1	31581
 684.6	31695
 685.1	31631
 685.7	31643
 686.2	31621
 686.7	31569
 687.2	31556
 687.8	31631
 688.3	31571
 688.8	31583
 689.3	31527
 689.8	31563
 690.4	31544
 690.9	31561
 691.4	31589
 691.9	31585
 692.4	31566
 693.0	31643
 693.5	31599
 694.0	31588
 694.5	31589
 695.1	31562
 695.6	31521
 696.1	31602
 696.6	31582
 697.1	31611
 697.7	31635
 698.2	31557
 698.7	31591
 699.2	31554
 699.7	31563
 700.3	31516
 700.8	31485
 701.3	31581
 701.8	31539
 702.3	31477
 702.8	31478
 703.4	31455
 703.9	31438
 704.4	31407
 704.9	31371
 705.4	31359
 706.0	31418
 706.5	31394
 707.0	31292
 707.5	31270
 708.0	31279
 708.5	31211
 709.1	31273
 709.6	31211
 710.1	31145
 710.6	31106
 711.1	31071
 711.7	31073
 712.2	31033
 712.7	31027
 713.2	30970
 713.7	30947
 714.2	30867
 714.8	30936
 715.3	30841
 715.8	30815
 716.3	30789
 716.8	30695
 717.3	30655
 717.8	30739
 718.4	30735
 718.9	30656
 719.4	30741
 719.9	30631
 720.4	30674
 720.9	30701
 721.4	30690
 722.0	30723
 722.5	30721
 723.0	30727
 723.5	30757
 724.0	30729
 724.5	30727
 725.0	30786
 725.6	30723
 726.1	30803
 726.6	30929
 727.1	30870
 727.6	30937
 728.1	30976
 728.6	30938
 729.1	30951
 729.7	30943
 730.2	30982
 730.7	31019
 731.2	31067
 731.7	31061
 732.2	31089
 732.7	31065
 733.2	31119
 733.8	31095
 734.3	31132
 734.8	31119
 735.3	31163
 735.8	31169
 736.3	31153
 736.8	31215
 737.3	31281
 737.8	31231
 738.4	31231
 738.9	31188
 739.4	31298
 739.9	31287
 740.4	31314
 740.9	31289
 741.4	31294
 741.9	31287
 742.4	31316
 742.9	31298
 743.4	31380
 744.0	31292
 744.5	31277
 745.0	31281
 745.5	31366
 746.0	31329
 746.5	31332
 747.0	31263
 747.5	31237
 748.0	31207
 748.5	31228
 749.0	31215
 749.5	31304
 750.0	31124
 750.5	31171
 751.1	31153
 751.6	31146
 752.1	31115
 752.6	31065
 753.1	31091
 753.6	31006
 754.1	30965
 754.6	30993
 755.1	30929
 755.6	30923
 756.1	30818
 756.6	30893
 757.1	30843
 757.6	30810
 758.1	30756
 758.6	30731
 759.1	30630
 759.6	30662
 760.1	30579
 760.7	30510
 761.2	30577
 761.7	30510
 762.2	30467
 762.7	30474
 763.2	30334
 763.7	30394
 764.2	30291
 764.7	30269
 765.2	30278
 765.7	30211
 766.2	30149
 766.7	30177
 767.2	30085
 767.7	30063
 768.2	30027
 768.7	29963
 769.2	29919
 769.7	29949
 770.2	29899
 770.7	29875
 771.2	29822
 771.7	29789
 772.2	29783
 772.7	29823
 773.2	29775
 773.7	29710
 774.2	29648
 774.7	29673
 775.2	29639
 775.7	29605
 776.2	29580
 776.7	29609
 777.2	29523
 777.7	29585
 778.2	29554
 778.7	29589
 779.2	29585
 779.7	29613
 780.2	29430
 780.7	29491
 781.2	29487
 781.7	29540
 782.2	29461
 782.6	29526
 783.1	29525
 783.6	29487
 784.1	29429
 784.6	29415
 785.1	29422
 785.6	29421
 786.1	29442
 786.6	29454
 787.1	29393
 787.6	29373
 788.1	29354
 788.6	29336
 789.1	29308
 789.6	29329
 790.1	29349
 790.6	29335
 791.1	29215
 791.6	29209
 792.0	29199
 792.5	29231
 793.0	29189
 793.5	29171
 794.0	29092
 794.5	29161
 795.0	29101
 795.5	29072
 796.0	29057
 796.5	28972
 797.0	28979
 797.5	29005
 798.0	28810
 798.4	28821
 798.9	28783
 799.4	28771
 799.9	28754
 800.4	28574
 800.9	28659
 801.4	28685
 801.9	28609
 802.4	28498
 802.9	28523
 803.3	28499
 803.8	28426
 804.3	28337
 804.8	28367
 805.3	28293
 805.8	28227
 806.3	28193
 806.8	28142
 807.2	28107
 807.7	28053
 808.2	28038
 808.7	27921
 809.2	27898
 809.7	27799
 810.2	27843
 810.7	27738
 811.1	27730
 811.6	27701
 812.1	27610
 812.6	27543
 813.1	27567
 813.6	27554
 814.1	27514
 814.5	27444
 815.0	27447
 815.5	27366
 816.0	27301
 816.5	27339
 817.0	27263
 817.4	27227
 817.9	27239
 818.4	27134
 818.9	27210
 819.4	27145
 819.9	27098
 820.3	27043
 820.8	27025
 821.3	27016
 821.8	26991
 822.3	26919
 822.7	26887
 823.2	26945
 823.7	26868
 824.2	26859
 824.7	26811
 825.2	26823
 825.6	26779
 826.1	26753
 826.6	26804
 827.1	26767
 827.6	26752
 828.0	26679
 828.5	26632
 829.0	26669
 829.5	26595
 829.9	26582
 830.4	26637
 830.9	26605
 831.4	26626
 831.9	26563
 832.3	26627
 832.8	26555
 833.3	26552
 833.8	26618
 834.2	26609
 834.7	26434
 835.2	26519
 835.7	26511
 836.1	26507
 836.6	26479
 837.1	26466
 837.6	26463
 838.0	26497
 838.5	26509
 839.0	26505
 839.5	26497
 839.9	26395
 840.4	26401
 840.9	26350
 841.4	26389
 841.8	26407
 842.3	26414
 842.8	26419
 843.3	26411
 843.7	26291
 844.2	26276
 844.7	26351
 845.1	26316
 845.6	26223
 846.1	26242
 846.6	26265
 847.0	26147
 847.5	26191
 848.0	26158
 848.4	26193
 848.9	26136
 849.4	26102
 849.8	26113
 850.3	26108
 850.8	26142
 851.3	26083
 851.7	26067
 852.2	26059
 852.7	26041
 853.1	26017
 853.6	25935
 854.1	25969
 854.5	25919
 855.0	25897
 855.5	25872
 855.9	25921
 856.4	25880
 856.9	25787
 857.3	25831
 857.8	25775
 858.3	25787
 858.7	25718
 859.2	25739
 859.7	25726
 860.1	25775
 860.6	25725
 861.1	25644
 861.5	25671
 862.0	25655
 862.4	25612
 862.9	25543
 863.4	25567
 863.8	25560
 864.3	25533
 864.8	25434
 865.2	25451
 865.7	25450
 866.1	25457
 866.6	25351
 867.1	25423
 867.5	25391
 868.0	25362
 868.5	25297
 868.9	25274
 869.4	25373
 869.8	25325
 870.3	25262
 870.8	25341
 871.2	25293
 871.7	25287
 872.1	25228
 872.6	25275
 873.0	25239
 873.5	25307
 874.0	25276
 874.4	25119
 874.9	25124
 875.3	25043
 875.8	24904
 876.2	24629
 876.7	24439
 877.2	24042
 877.6	23610
 878.1	23203
