#xlabel Wavelength (nm)
#ylabel Spectrometer Array Counts
#title Exposure time is 12000 ms
## lambda	counts
 349.8	20540
 350.3	20778
 350.8	21024
 351.3	21237
 351.9	21363
 352.4	21502
 352.9	21609
 353.4	21588
 354.0	21610
 354.5	21684
 355.0	21695
 355.5	21730
 356.0	21698
 356.6	21655
 357.1	21708
 357.6	21684
 358.1	21720
 358.7	21656
 359.2	21674
 359.7	21688
 360.2	21722
 360.8	21677
 361.3	21781
 361.8	21715
 362.3	21746
 362.9	21694
 363.4	21772
 363.9	21774
 364.4	21803
 364.9	21693
 365.5	21780
 366.0	21755
 366.5	21697
 367.0	21751
 367.6	21773
 368.1	21773
 368.6	21693
 369.1	21755
 369.7	21813
 370.2	21713
 370.7	21709
 371.2	21762
 371.8	21816
 372.3	21721
 372.8	21807
 373.3	21818
 373.9	21745
 374.4	21765
 374.9	21815
 375.5	21686
 376.0	21820
 376.5	21768
 377.0	21802
 377.6	21737
 378.1	21814
 378.6	21729
 379.1	21741
 379.7	21712
 380.2	21793
 380.7	21788
 381.2	21735
 381.8	21715
 382.3	21753
 382.8	21729
 383.4	21779
 383.9	21711
 384.4	21882
 384.9	21772
 385.5	21788
 386.0	21791
 386.5	21861
 387.1	21783
 387.6	21799
 388.1	21790
 388.6	21803
 389.2	21789
 389.7	21803
 390.2	21779
 390.8	21877
 391.3	21826
 391.8	21807
 392.3	21782
 392.9	21759
 393.4	21743
 393.9	21811
 394.5	21807
 395.0	21739
 395.5	21761
 396.0	21746
 396.6	21704
 397.1	21801
 397.6	21798
 398.2	21794
 398.7	21784
 399.2	21892
 399.8	21743
 400.3	21813
 400.8	21853
 401.3	21816
 401.9	21827
 402.4	21843
 402.9	21827
 403.5	21851
 404.0	21824
 404.5	21757
 405.1	21759
 405.6	21857
 406.1	21813
 406.7	21811
 407.2	21807
 407.7	21885
 408.2	21864
 408.8	21862
 409.3	21878
 409.8	21915
 410.4	21870
 410.9	21863
 411.4	21789
 412.0	21857
 412.5	21904
 413.0	21839
 413.6	21877
 414.1	21824
 414.6	21841
 415.2	21889
 415.7	21815
 416.2	21855
 416.8	21829
 417.3	21807
 417.8	21813
 418.4	21909
 418.9	21828
 419.4	21976
 420.0	21831
 420.5	21901
 421.0	21821
 421.5	21910
 422.1	21875
 422.6	21924
 423.1	21945
 423.7	21901
 424.2	21879
 424.7	21910
 425.3	21875
 425.8	21891
 426.3	21870
 426.9	21931
 427.4	21849
 427.9	21977
 428.5	21893
 429.0	21927
 429.6	21877
 430.1	21953
 430.6	21933
 431.2	21847
 431.7	21942
 432.2	21887
 432.8	21849
 433.3	21953
 433.8	21941
 434.4	21891
 434.9	21886
 435.4	21932
 436.0	21889
 436.5	21877
 437.0	21943
 437.6	21902
 438.1	21953
 438.6	21952
 439.2	21977
 439.7	21963
 440.2	21898
 440.8	21929
 441.3	21927
 441.8	21925
 442.4	21884
 442.9	21919
 443.5	21963
 444.0	21952
 444.5	21973
 445.1	21869
 445.6	21899
 446.1	21921
 446.7	21931
 447.2	21940
 447.7	21915
 448.3	21979
 448.8	21925
 449.3	21942
 449.9	21863
 450.4	21967
 450.9	21981
 451.5	21963
 452.0	21913
 452.6	21917
 453.1	21969
 453.6	21958
 454.2	21806
 454.7	21874
 455.2	21887
 455.8	21927
 456.3	21850
 456.8	21979
 457.4	21887
 457.9	21887
 458.5	21936
 459.0	21884
 459.5	21929
 460.1	21871
 460.6	21913
 461.1	21905
 461.7	21956
 462.2	21909
 462.7	21941
 463.3	21860
 463.8	21932
 464.4	22006
 464.9	21929
 465.4	22001
 466.0	21879
 466.5	21960
 467.0	21872
 467.6	21940
 468.1	22035
 468.7	21939
 469.2	21852
 469.7	21946
 470.3	21910
 470.8	21943
 471.3	21909
 471.9	21847
 472.4	21898
 473.0	21931
 473.5	21935
 474.0	21914
 474.6	21903
 475.1	21896
 475.6	21967
 476.2	21968
 476.7	21931
 477.3	21985
 477.8	21907
 478.3	21813
 478.9	22045
 479.4	21906
 479.9	21906
 480.5	21877
 481.0	21897
 481.6	21914
 482.1	21970
 482.6	21932
 483.2	21929
 483.7	22047
 484.2	21967
 484.8	21772
 485.3	21869
 485.9	21946
 486.4	21892
 486.9	21910
 487.5	21845
 488.0	21845
 488.6	21904
 489.1	21910
 489.6	21958
 490.2	21946
 490.7	21897
 491.2	21853
 491.8	21915
 492.3	21855
 492.9	21905
 493.4	21908
 493.9	21927
 494.5	21930
 495.0	22006
 495.6	21913
 496.1	21932
 496.6	21994
 497.2	21903
 497.7	21860
 498.2	21970
 498.8	21986
 499.3	21886
 499.9	21951
 500.4	21943
 500.9	21923
 501.5	21898
 502.0	21968
 502.6	21931
 503.1	22021
 503.6	21961
 504.2	21901
 504.7	21890
 505.2	21940
 505.8	21919
 506.3	21992
 506.9	21977
 507.4	21917
 507.9	21870
 508.5	21887
 509.0	21919
 509.6	21969
 510.1	21917
 510.6	21932
 511.2	21943
 511.7	21900
 512.2	21964
 512.8	21978
 513.3	21913
 513.9	21887
 514.4	21951
 514.9	22025
 515.5	21899
 516.0	21989
 516.6	21947
 517.1	22011
 517.6	21993
 518.2	21971
 518.7	21904
 519.3	21976
 519.8	22028
 520.3	22029
 520.9	21979
 521.4	21998
 521.9	22072
 522.5	21985
 523.0	22022
 523.6	22068
 524.1	21904
 524.6	21966
 525.2	21993
 525.7	22030
 526.3	21938
 526.8	22029
 527.3	21959
 527.9	21982
 528.4	21955
 528.9	22009
 529.5	22014
 530.0	21983
 530.6	22031
 531.1	22018
 531.6	21907
 532.2	22017
 532.7	21954
 533.3	21973
 533.8	22099
 534.3	22113
 534.9	22087
 535.4	22010
 536.0	22067
 536.5	22093
 537.0	22034
 537.6	22047
 538.1	22084
 538.6	22094
 539.2	22010
 539.7	22019
 540.3	22127
 540.8	22065
 541.3	22015
 541.9	22043
 542.4	22035
 543.0	22110
 543.5	22058
 544.0	22027
 544.6	22081
 545.1	22088
 545.6	22131
 546.2	22112
 546.7	22011
 547.3	22084
 547.8	22059
 548.3	22118
 548.9	22023
 549.4	22027
 550.0	21994
 550.5	22071
 551.0	22120
 551.6	22061
 552.1	22083
 552.6	22088
 553.2	22055
 553.7	22027
 554.3	22075
 554.8	22149
 555.3	21977
 555.9	22048
 556.4	22002
 556.9	22106
 557.5	22138
 558.0	22075
 558.6	22041
 559.1	22110
 559.6	22087
 560.2	22082
 560.7	22073
 561.3	22033
 561.8	21997
 562.3	22124
 562.9	22094
 563.4	22118
 563.9	22101
 564.5	22110
 565.0	22078
 565.6	22098
 566.1	22090
 566.6	22090
 567.2	22078
 567.7	22191
 568.2	22085
 568.8	22097
 569.3	22057
 569.9	22137
 570.4	22121
 570.9	22084
 571.5	22079
 572.0	22063
 572.5	22119
 573.1	22053
 573.6	22107
 574.1	22093
 574.7	22083
 575.2	22040
 575.8	22083
 576.3	22155
 576.8	22104
 577.4	22105
 577.9	22121
 578.4	22055
 579.0	22058
 579.5	22173
 580.1	22070
 580.6	22059
 581.1	22139
 581.7	22148
 582.2	22063
 582.7	22109
 583.3	22153
 583.8	22109
 584.3	22039
 584.9	22099
 585.4	22093
 586.0	22056
 586.5	22086
 587.0	22029
 587.6	22111
 588.1	22053
 588.6	22131
 589.2	22060
 589.7	22074
 590.2	22058
 590.8	22063
 591.3	22090
 591.9	22034
 592.4	22106
 592.9	22040
 593.5	22028
 594.0	22030
 594.5	22061
 595.1	22052
 595.6	22027
 596.1	22099
 596.7	22068
 597.2	22119
 597.7	22050
 598.3	22072
 598.8	22046
 599.3	22069
 599.9	22053
 600.4	22055
 601.0	22068
 601.5	22060
 602.0	22052
 602.6	21986
 603.1	22008
 603.6	22012
 604.2	22133
 604.7	22014
 605.2	22091
 605.8	21984
 606.3	22011
 606.8	22079
 607.4	22053
 607.9	22083
 608.4	22011
 609.0	22036
 609.5	22081
 610.0	22043
 610.6	22135
 611.1	22035
 611.6	22054
 612.2	22040
 612.7	22097
 613.2	22074
 613.8	21979
 614.3	21998
 614.8	22047
 615.4	21945
 615.9	22031
 616.4	22074
 617.0	21999
 617.5	22100
 618.0	22089
 618.6	21983
 619.1	22003
 619.6	22067
 620.2	22035
 620.7	22083
 621.2	22017
 621.8	22043
 622.3	22055
 622.8	21991
 623.4	22020
 623.9	22070
 624.4	22031
 625.0	22019
 625.5	22020
 626.0	22029
 626.6	22081
 627.1	22071
 627.6	22017
 628.2	21977
 628.7	22017
 629.2	22000
 629.8	22039
 630.3	22056
 630.8	22047
 631.4	22039
 631.9	22071
 632.4	21967
 632.9	22005
 633.5	22014
 634.0	21981
 634.5	22084
 635.1	22021
 635.6	22006
 636.1	22004
 636.7	22077
 637.2	22085
 637.7	21993
 638.3	22111
 638.8	22113
 639.3	22139
 639.8	22084
 640.4	22105
 640.9	22145
 641.4	22044
 642.0	22044
 642.5	22076
 643.0	22038
 643.6	22141
 644.1	22095
 644.6	22109
 645.1	22153
 645.7	22123
 646.2	22081
 646.7	22099
 647.3	22129
 647.8	22135
 648.3	22105
 648.9	22130
 649.4	22030
 649.9	22095
 650.4	22107
 651.0	22142
 651.5	22145
 652.0	22195
 652.6	22126
 653.1	22198
 653.6	22091
 654.1	22172
 654.7	22106
 655.2	22185
 655.7	22211
 656.3	22221
 656.8	22147
 657.3	22198
 657.8	22123
 658.4	22111
 658.9	22111
 659.4	22196
 659.9	22178
 660.5	22141
 661.0	22190
 661.5	22239
 662.1	22181
 662.6	22189
 663.1	22144
 663.6	22231
 664.2	22177
 664.7	22143
 665.2	22057
 665.7	22203
 666.3	22161
 666.8	22177
 667.3	22185
 667.8	22134
 668.4	22174
 668.9	22183
 669.4	22174
 669.9	22214
 670.5	22148
 671.0	22169
 671.5	22119
 672.0	22194
 672.6	22205
 673.1	22242
 673.6	22141
 674.1	22185
 674.7	22184
 675.2	22243
 675.7	22093
 676.2	22104
 676.8	22175
 677.3	22201
 677.8	22125
 678.3	22263
 678.9	22184
 679.4	22135
 679.9	22210
 680.4	22220
 681.0	22181
 681.5	22232
 682.0	22205
 682.5	22241
 683.1	22141
 683.6	22209
 684.1	22141
 684.6	22265
 685.1	22195
 685.7	22230
 686.2	22203
 686.7	22160
 687.2	22145
 687.8	22235
 688.3	22173
 688.8	22203
 689.3	22133
 689.8	22179
 690.4	22167
 690.9	22177
 691.4	22172
 691.9	22203
 692.4	22155
 693.0	22233
 693.5	22201
 694.0	22179
 694.5	22177
 695.1	22147
 695.6	22109
 696.1	22187
 696.6	22169
 697.1	22191
 697.7	22220
 698.2	22143
 698.7	22174
 699.2	22133
 699.7	22147
 700.3	22125
 700.8	22101
 701.3	22231
 701.8	22186
 702.3	22128
 702.8	22143
 703.4	22114
 703.9	22139
 704.4	22141
 704.9	22110
 705.4	22117
 706.0	22231
 706.5	22223
 707.0	22138
 707.5	22133
 708.0	22175
 708.5	22127
 709.1	22213
 709.6	22175
 710.1	22153
 710.6	22127
 711.1	22136
 711.7	22171
 712.2	22181
 712.7	22203
 713.2	22184
 713.7	22194
 714.2	22142
 714.8	22249
 715.3	22186
 715.8	22199
 716.3	22211
 716.8	22105
 717.3	22099
 717.8	22227
 718.4	22239
 718.9	22166
 719.4	22263
 719.9	22154
 720.4	22207
 720.9	22213
 721.4	22207
 722.0	22230
 722.5	22207
 723.0	22193
 723.5	22209
 724.0	22161
 724.5	22149
 725.0	22168
 725.6	22089
 726.1	22147
 726.6	22273
 727.1	22204
 727.6	22242
 728.1	22271
 728.6	22212
 729.1	22201
 729.7	22185
 730.2	22211
 730.7	22245
 731.2	22280
 731.7	22267
 732.2	22270
 732.7	22248
 733.2	22304
 733.8	22272
 734.3	22285
 734.8	22243
 735.3	22265
 735.8	22253
 736.3	22208
 736.8	22243
 737.3	22289
 737.8	22228
 738.4	22210
 738.9	22156
 739.4	22249
 739.9	22243
 740.4	22231
 740.9	22221
 741.4	22217
 741.9	22218
 742.4	22239
 742.9	22213
 743.4	22322
 744.0	22231
 744.5	22224
 745.0	22242
 745.5	22345
 746.0	22318
 746.5	22324
 747.0	22264
 747.5	22256
 748.0	22226
 748.5	22255
 749.0	22274
 749.5	22384
 750.0	22203
 750.5	22285
 751.1	22299
 751.6	22311
 752.1	22314
 752.6	22271
 753.1	22316
 753.6	22249
 754.1	22226
 754.6	22285
 755.1	22249
 755.6	22270
 756.1	22187
 756.6	22313
 757.1	22283
 757.6	22279
 758.1	22250
 758.6	22280
 759.1	22213
 759.6	22274
 760.1	22221
 760.7	22195
 761.2	22287
 761.7	22234
 762.2	22225
 762.7	22297
 763.2	22146
 763.7	22262
 764.2	22193
 764.7	22214
 765.2	22263
 765.7	22239
 766.2	22205
 766.7	22276
 767.2	22230
 767.7	22258
 768.2	22250
 768.7	22215
 769.2	22222
 769.7	22288
 770.2	22258
 770.7	22263
 771.2	22251
 771.7	22238
 772.2	22262
 772.7	22316
 773.2	22300
 773.7	22257
 774.2	22208
 774.7	22269
 775.2	22268
 775.7	22245
 776.2	22251
 776.7	22285
 777.2	22202
 777.7	22301
 778.2	22281
 778.7	22328
 779.2	22349
 779.7	22384
 780.2	22203
 780.7	22293
 781.2	22299
 781.7	22386
 782.2	22297
 782.6	22386
 783.1	22399
 783.6	22365
 784.1	22330
 784.6	22316
 785.1	22331
 785.6	22326
 786.1	22371
 786.6	22395
 787.1	22329
 787.6	22337
 788.1	22335
 788.6	22325
 789.1	22321
 789.6	22367
 790.1	22399
 790.6	22401
 791.1	22295
 791.6	22316
 792.0	22346
 792.5	22393
 793.0	22385
 793.5	22387
 794.0	22325
 794.5	22435
 795.0	22416
 795.5	22395
 796.0	22423
 796.5	22365
 797.0	22404
 797.5	22473
 798.0	22317
 798.4	22373
 798.9	22367
 799.4	22406
 799.9	22426
 800.4	22283
 800.9	22413
 801.4	22493
 801.9	22469
 802.4	22393
 802.9	22481
 803.3	22493
 803.8	22473
 804.3	22423
 804.8	22501
 805.3	22461
 805.8	22461
 806.3	22473
 806.8	22473
 807.2	22474
 807.7	22467
 808.2	22504
 808.7	22425
 809.2	22452
 809.7	22395
 810.2	22475
 810.7	22413
 811.1	22453
 811.6	22470
 812.1	22424
 812.6	22390
 813.1	22459
 813.6	22491
 814.1	22470
 814.5	22437
 815.0	22475
 815.5	22441
 816.0	22407
 816.5	22482
 817.0	22439
 817.4	22437
 817.9	22481
 818.4	22413
 818.9	22517
 819.4	22469
 819.9	22459
 820.3	22427
 820.8	22437
 821.3	22450
 821.8	22466
 822.3	22423
 822.7	22405
 823.2	22481
 823.7	22431
 824.2	22449
 824.7	22422
 825.2	22457
 825.6	22436
 826.1	22431
 826.6	22497
 827.1	22488
 827.6	22481
 828.0	22424
 828.5	22393
 829.0	22448
 829.5	22391
 829.9	22399
 830.4	22469
 830.9	22460
 831.4	22492
 831.9	22438
 832.3	22534
 832.8	22479
 833.3	22475
 833.8	22575
 834.2	22566
 834.7	22392
 835.2	22497
 835.7	22508
 836.1	22511
 836.6	22497
 837.1	22503
 837.6	22509
 838.0	22555
 838.5	22581
 839.0	22589
 839.5	22585
 839.9	22501
 840.4	22517
 840.9	22480
 841.4	22525
 841.8	22553
 842.3	22575
 842.8	22594
 843.3	22595
 843.7	22491
 844.2	22486
 844.7	22586
 845.1	22557
 845.6	22469
 846.1	22501
 846.6	22541
 847.0	22421
 847.5	22492
 848.0	22474
 848.4	22518
 848.9	22487
 849.4	22477
 849.8	22508
 850.3	22505
 850.8	22563
 851.3	22527
 851.7	22523
 852.2	22533
 852.7	22526
 853.1	22513
 853.6	22462
 854.1	22507
 854.5	22473
 855.0	22475
 855.5	22466
 855.9	22545
 856.4	22535
 856.9	22439
 857.3	22515
 857.8	22485
 858.3	22537
 858.7	22491
 859.2	22533
 859.7	22511
 860.1	22579
 860.6	22555
 861.1	22490
 861.5	22555
 862.0	22562
 862.4	22541
 862.9	22500
 863.4	22546
 863.8	22557
 864.3	22565
 864.8	22481
 865.2	22539
 865.7	22558
 866.1	22589
 866.6	22501
 867.1	22595
 867.5	22583
 868.0	22566
 868.5	22519
 868.9	22524
 869.4	22645
 869.8	22599
 870.3	22556
 870.8	22629
 871.2	22580
 871.7	22580
 872.1	22521
 872.6	22572
 873.0	22536
 873.5	22619
 874.0	22592
 874.4	22442
 874.9	22465
 875.3	22407
 875.8	22298
 876.2	22063
 876.7	21924
 877.2	21596
 877.6	21227
 878.1	20908
