#xlabel Wavelength (nm)
#ylabel Spectrometer Array Counts
#title Exposure time is 12000 ms
## lambda	counts
 349.8	20771
 350.3	21027
 350.8	21287
 351.3	21512
 351.9	21650
 352.4	21799
 352.9	21897
 353.4	21885
 354.0	21903
 354.5	21981
 355.0	21991
 355.5	22020
 356.0	21987
 356.6	21952
 357.1	22001
 357.6	21983
 358.1	22017
 358.7	21960
 359.2	21977
 359.7	22001
 360.2	22049
 360.8	22012
 361.3	22119
 361.8	22063
 362.3	22102
 362.9	22061
 363.4	22151
 363.9	22154
 364.4	22187
 364.9	22086
 365.5	22181
 366.0	22163
 366.5	22113
 367.0	22175
 367.6	22203
 368.1	22210
 368.6	22138
 369.1	22204
 369.7	22265
 370.2	22182
 370.7	22187
 371.2	22246
 371.8	22314
 372.3	22227
 372.8	22318
 373.3	22341
 373.9	22278
 374.4	22303
 374.9	22365
 375.5	22248
 376.0	22392
 376.5	22354
 377.0	22396
 377.6	22348
 378.1	22439
 378.6	22365
 379.1	22393
 379.7	22375
 380.2	22465
 380.7	22471
 381.2	22433
 381.8	22425
 382.3	22476
 382.8	22460
 383.4	22520
 383.9	22468
 384.4	22643
 384.9	22536
 385.5	22557
 386.0	22566
 386.5	22644
 387.1	22571
 387.6	22603
 388.1	22609
 388.6	22632
 389.2	22625
 389.7	22656
 390.2	22645
 390.8	22763
 391.3	22741
 391.8	22739
 392.3	22734
 392.9	22737
 393.4	22745
 393.9	22838
 394.5	22851
 395.0	22805
 395.5	22841
 396.0	22847
 396.6	22819
 397.1	22931
 397.6	22937
 398.2	22939
 398.7	22941
 399.2	23050
 399.8	22914
 400.3	22981
 400.8	23031
 401.3	23004
 401.9	23022
 402.4	23055
 402.9	23048
 403.5	23091
 404.0	23078
 404.5	23034
 405.1	23059
 405.6	23172
 406.1	23156
 406.7	23174
 407.2	23194
 407.7	23297
 408.2	23299
 408.8	23321
 409.3	23362
 409.8	23417
 410.4	23397
 410.9	23411
 411.4	23362
 412.0	23450
 412.5	23508
 413.0	23465
 413.6	23516
 414.1	23493
 414.6	23518
 415.2	23587
 415.7	23532
 416.2	23586
 416.8	23577
 417.3	23574
 417.8	23601
 418.4	23715
 418.9	23651
 419.4	23812
 420.0	23687
 420.5	23772
 421.0	23706
 421.5	23816
 422.1	23788
 422.6	23859
 423.1	23895
 423.7	23864
 424.2	23847
 424.7	23898
 425.3	23869
 425.8	23905
 426.3	23895
 426.9	23972
 427.4	23901
 427.9	24043
 428.5	23980
 429.0	24033
 429.6	24009
 430.1	24118
 430.6	24132
 431.2	24087
 431.7	24215
 432.2	24203
 432.8	24201
 433.3	24345
 433.8	24365
 434.4	24358
 434.9	24385
 435.4	24471
 436.0	24465
 436.5	24481
 437.0	24566
 437.6	24547
 438.1	24617
 438.6	24637
 439.2	24663
 439.7	24662
 440.2	24598
 440.8	24628
 441.3	24636
 441.8	24631
 442.4	24600
 442.9	24630
 443.5	24679
 444.0	24667
 444.5	24694
 445.1	24597
 445.6	24645
 446.1	24683
 446.7	24711
 447.2	24747
 447.7	24746
 448.3	24843
 448.8	24827
 449.3	24883
 449.9	24855
 450.4	25017
 450.9	25068
 451.5	25106
 452.0	25117
 452.6	25166
 453.1	25272
 453.6	25309
 454.2	25209
 454.7	25317
 455.2	25373
 455.8	25451
 456.3	25404
 456.8	25553
 457.4	25496
 457.9	25516
 458.5	25573
 459.0	25529
 459.5	25586
 460.1	25531
 460.6	25580
 461.1	25575
 461.7	25625
 462.2	25579
 462.7	25609
 463.3	25530
 463.8	25609
 464.4	25686
 464.9	25620
 465.4	25710
 466.0	25616
 466.5	25701
 467.0	25643
 467.6	25737
 468.1	25851
 468.7	25801
 469.2	25735
 469.7	25866
 470.3	25865
 470.8	25939
 471.3	25933
 471.9	25914
 472.4	25997
 473.0	26058
 473.5	26105
 474.0	26118
 474.6	26148
 475.1	26167
 475.6	26271
 476.2	26297
 476.7	26284
 477.3	26362
 477.8	26313
 478.3	26251
 478.9	26497
 479.4	26391
 479.9	26423
 480.5	26430
 481.0	26475
 481.6	26521
 482.1	26615
 482.6	26604
 483.2	26646
 483.7	26781
 484.2	26745
 484.8	26595
 485.3	26717
 485.9	26813
 486.4	26795
 486.9	26849
 487.5	26810
 488.0	26839
 488.6	26926
 489.1	26961
 489.6	27023
 490.2	27033
 490.7	27012
 491.2	26967
 491.8	27049
 492.3	26997
 492.9	27055
 493.4	27063
 493.9	27090
 494.5	27081
 495.0	27148
 495.6	27063
 496.1	27067
 496.6	27124
 497.2	27029
 497.7	26989
 498.2	27079
 498.8	27087
 499.3	27000
 499.9	27071
 500.4	27071
 500.9	27067
 501.5	27069
 502.0	27166
 502.6	27162
 503.1	27285
 503.6	27272
 504.2	27251
 504.7	27291
 505.2	27392
 505.8	27417
 506.3	27561
 506.9	27624
 507.4	27631
 507.9	27648
 508.5	27735
 509.0	27831
 509.6	27963
 510.1	27967
 510.6	28053
 511.2	28111
 511.7	28145
 512.2	28251
 512.8	28312
 513.3	28304
 513.9	28317
 514.4	28405
 514.9	28514
 515.5	28408
 516.0	28502
 516.6	28445
 517.1	28497
 517.6	28461
 518.2	28427
 518.7	28348
 519.3	28389
 519.8	28387
 520.3	28353
 520.9	28295
 521.4	28285
 521.9	28325
 522.5	28197
 523.0	28194
 523.6	28224
 524.1	28057
 524.6	28097
 525.2	28111
 525.7	28157
 526.3	28094
 526.8	28197
 527.3	28148
 527.9	28199
 528.4	28191
 528.9	28275
 529.5	28322
 530.0	28338
 530.6	28423
 531.1	28467
 531.6	28409
 532.2	28575
 532.7	28583
 533.3	28670
 533.8	28846
 534.3	28934
 534.9	28977
 535.4	28982
 536.0	29109
 536.5	29191
 537.0	29199
 537.6	29265
 538.1	29361
 538.6	29425
 539.2	29394
 539.7	29458
 540.3	29596
 540.8	29569
 541.3	29551
 541.9	29615
 542.4	29615
 543.0	29706
 543.5	29663
 544.0	29641
 544.6	29680
 545.1	29706
 545.6	29727
 546.2	29708
 546.7	29597
 547.3	29661
 547.8	29625
 548.3	29667
 548.9	29563
 549.4	29553
 550.0	29510
 550.5	29578
 551.0	29610
 551.6	29555
 552.1	29557
 552.6	29563
 553.2	29501
 553.7	29487
 554.3	29520
 554.8	29600
 555.3	29437
 555.9	29507
 556.4	29485
 556.9	29612
 557.5	29644
 558.0	29609
 558.6	29603
 559.1	29682
 559.6	29681
 560.2	29714
 560.7	29743
 561.3	29717
 561.8	29707
 562.3	29863
 562.9	29858
 563.4	29913
 563.9	29910
 564.5	29940
 565.0	29937
 565.6	29966
 566.1	29975
 566.6	29981
 567.2	29980
 567.7	30089
 568.2	30017
 568.8	30025
 569.3	30010
 569.9	30079
 570.4	30052
 570.9	30040
 571.5	30037
 572.0	30047
 572.5	30108
 573.1	30065
 573.6	30137
 574.1	30127
 574.7	30141
 575.2	30123
 575.8	30182
 576.3	30283
 576.8	30254
 577.4	30283
 577.9	30329
 578.4	30315
 579.0	30347
 579.5	30483
 580.1	30410
 580.6	30457
 581.1	30561
 581.7	30615
 582.2	30570
 582.7	30639
 583.3	30698
 583.8	30695
 584.3	30662
 584.9	30736
 585.4	30758
 586.0	30745
 586.5	30793
 587.0	30783
 587.6	30875
 588.1	30842
 588.6	30913
 589.2	30868
 589.7	30892
 590.2	30890
 590.8	30872
 591.3	30903
 591.9	30838
 592.4	30895
 592.9	30813
 593.5	30783
 594.0	30765
 594.5	30765
 595.1	30713
 595.6	30659
 596.1	30703
 596.7	30661
 597.2	30671
 597.7	30589
 598.3	30583
 598.8	30537
 599.3	30519
 599.9	30461
 600.4	30445
 601.0	30435
 601.5	30414
 602.0	30389
 602.6	30331
 603.1	30347
 603.6	30357
 604.2	30461
 604.7	30367
 605.2	30449
 605.8	30355
 606.3	30399
 606.8	30482
 607.4	30487
 607.9	30548
 608.4	30511
 609.0	30572
 609.5	30633
 610.0	30621
 610.6	30739
 611.1	30681
 611.6	30753
 612.2	30780
 612.7	30867
 613.2	30897
 613.8	30850
 614.3	30919
 614.8	31000
 615.4	30979
 615.9	31120
 616.4	31219
 617.0	31203
 617.5	31334
 618.0	31404
 618.6	31391
 619.1	31475
 619.6	31591
 620.2	31656
 620.7	31783
 621.2	31799
 621.8	31875
 622.3	31954
 622.8	31965
 623.4	32038
 623.9	32133
 624.4	32134
 625.0	32158
 625.5	32158
 626.0	32191
 626.6	32257
 627.1	32240
 627.6	32180
 628.2	32147
 628.7	32190
 629.2	32172
 629.8	32180
 630.3	32159
 630.8	32134
 631.4	32082
 631.9	32070
 632.4	31924
 632.9	31912
 633.5	31882
 634.0	31807
 634.5	31825
 635.1	31735
 635.6	31696
 636.1	31637
 636.7	31635
 637.2	31607
 637.7	31471
 638.3	31545
 638.8	31507
 639.3	31501
 639.8	31395
 640.4	31399
 640.9	31403
 641.4	31295
 642.0	31260
 642.5	31266
 643.0	31229
 643.6	31315
 644.1	31263
 644.6	31271
 645.1	31291
 645.7	31292
 646.2	31235
 646.7	31263
 647.3	31291
 647.8	31319
 648.3	31293
 648.9	31343
 649.4	31259
 649.9	31339
 650.4	31379
 651.0	31449
 651.5	31468
 652.0	31546
 652.6	31523
 653.1	31615
 653.6	31553
 654.1	31644
 654.7	31621
 655.2	31740
 655.7	31796
 656.3	31831
 656.8	31806
 657.3	31883
 657.8	31853
 658.4	31888
 658.9	31923
 659.4	32007
 659.9	32033
 660.5	32009
 661.0	32065
 661.5	32123
 662.1	32099
 662.6	32119
 663.1	32081
 663.6	32183
 664.2	32127
 664.7	32107
 665.2	32046
 665.7	32169
 666.3	32117
 666.8	32109
 667.3	32123
 667.8	32079
 668.4	32094
 668.9	32101
 669.4	32065
 669.9	32086
 670.5	32003
 671.0	32017
 671.5	31967
 672.0	31998
 672.6	31987
 673.1	32019
 673.6	31903
 674.1	31930
 674.7	31909
 675.2	31938
 675.7	31795
 676.2	31773
 676.8	31837
 677.3	31830
 677.8	31742
 678.3	31839
 678.9	31765
 679.4	31688
 679.9	31749
 680.4	31729
 681.0	31686
 681.5	31711
 682.0	31655
 682.5	31693
 683.1	31587
 683.6	31621
 684.1	31551
 684.6	31657
 685.1	31594
 685.7	31607
 686.2	31587
 686.7	31535
 687.2	31519
 687.8	31597
 688.3	31537
 688.8	31547
 689.3	31482
 689.8	31529
 690.4	31511
 690.9	31528
 691.4	31553
 691.9	31549
 692.4	31523
 693.0	31604
 693.5	31558
 694.0	31549
 694.5	31550
 695.1	31529
 695.6	31483
 696.1	31564
 696.6	31548
 697.1	31575
 697.7	31599
 698.2	31519
 698.7	31553
 699.2	31519
 699.7	31522
 700.3	31478
 700.8	31447
 701.3	31546
 701.8	31503
 702.3	31443
 702.8	31443
 703.4	31424
 703.9	31399
 704.4	31374
 704.9	31338
 705.4	31323
 706.0	31388
 706.5	31361
 707.0	31266
 707.5	31235
 708.0	31243
 708.5	31174
 709.1	31235
 709.6	31179
 710.1	31115
 710.6	31067
 711.1	31037
 711.7	31037
 712.2	30994
 712.7	30991
 713.2	30935
 713.7	30918
 714.2	30829
 714.8	30905
 715.3	30810
 715.8	30781
 716.3	30755
 716.8	30655
 717.3	30617
 717.8	30703
 718.4	30701
 718.9	30617
 719.4	30707
 719.9	30597
 720.4	30641
 720.9	30667
 721.4	30653
 722.0	30690
 722.5	30688
 723.0	30694
 723.5	30719
 724.0	30695
 724.5	30689
 725.0	30744
 725.6	30693
 726.1	30763
 726.6	30893
 727.1	30839
 727.6	30900
 728.1	30951
 728.6	30897
 729.1	30910
 729.7	30903
 730.2	30946
 730.7	30981
 731.2	31034
 731.7	31029
 732.2	31059
 732.7	31027
 733.2	31086
 733.8	31058
 734.3	31095
 734.8	31090
 735.3	31124
 735.8	31127
 736.3	31118
 736.8	31177
 737.3	31243
 737.8	31194
 738.4	31197
 738.9	31154
 739.4	31259
 739.9	31255
 740.4	31283
 740.9	31253
 741.4	31259
 741.9	31254
 742.4	31276
 742.9	31261
 743.4	31348
 744.0	31249
 744.5	31242
 745.0	31249
 745.5	31322
 746.0	31286
 746.5	31305
 747.0	31225
 747.5	31200
 748.0	31176
 748.5	31191
 749.0	31181
 749.5	31270
 750.0	31091
 750.5	31127
 751.1	31116
 751.6	31111
 752.1	31070
 752.6	31033
 753.1	31058
 753.6	30974
 754.1	30933
 754.6	30948
 755.1	30890
 755.6	30883
 756.1	30780
 756.6	30860
 757.1	30812
 757.6	30782
 758.1	30717
 758.6	30693
 759.1	30599
 759.6	30623
 760.1	30549
 760.7	30474
 761.2	30538
 761.7	30469
 762.2	30431
 762.7	30443
 763.2	30301
 763.7	30359
 764.2	30257
 764.7	30237
 765.2	30243
 765.7	30176
 766.2	30115
 766.7	30135
 767.2	30046
 767.7	30026
 768.2	29995
 768.7	29931
 769.2	29885
 769.7	29915
 770.2	29863
 770.7	29844
 771.2	29785
 771.7	29757
 772.2	29757
 772.7	29790
 773.2	29738
 773.7	29681
 774.2	29617
 774.7	29643
 775.2	29603
 775.7	29585
 776.2	29550
 776.7	29575
 777.2	29487
 777.7	29554
 778.2	29519
 778.7	29563
 779.2	29555
 779.7	29579
 780.2	29397
 780.7	29463
 781.2	29452
 781.7	29510
 782.2	29424
 782.6	29498
 783.1	29486
 783.6	29450
 784.1	29386
 784.6	29378
 785.1	29390
 785.6	29385
 786.1	29407
 786.6	29420
 787.1	29357
 787.6	29340
 788.1	29321
 788.6	29302
 789.1	29275
 789.6	29301
 790.1	29315
 790.6	29295
 791.1	29185
 791.6	29179
 792.0	29165
 792.5	29195
 793.0	29154
 793.5	29134
 794.0	29065
 794.5	29129
 795.0	29066
 795.5	29044
 796.0	29025
 796.5	28942
 797.0	28944
 797.5	28975
 798.0	28785
 798.4	28790
 798.9	28743
 799.4	28735
 799.9	28717
 800.4	28536
 800.9	28629
 801.4	28651
 801.9	28575
 802.4	28461
 802.9	28491
 803.3	28464
 803.8	28387
 804.3	28301
 804.8	28334
 805.3	28258
 805.8	28196
 806.3	28162
 806.8	28110
 807.2	28067
 807.7	28023
 808.2	28006
 808.7	27892
 809.2	27873
 809.7	27762
 810.2	27817
 810.7	27709
 811.1	27695
 811.6	27667
 812.1	27579
 812.6	27512
 813.1	27534
 813.6	27525
 814.1	27481
 814.5	27413
 815.0	27416
 815.5	27337
 816.0	27269
 816.5	27307
 817.0	27234
 817.4	27194
 817.9	27207
 818.4	27107
 818.9	27175
 819.4	27111
 819.9	27061
 820.3	27014
 820.8	26992
 821.3	26981
 821.8	26956
 822.3	26889
 822.7	26858
 823.2	26909
 823.7	26833
 824.2	26833
 824.7	26786
 825.2	26794
 825.6	26749
 826.1	26718
 826.6	26770
 827.1	26734
 827.6	26719
 828.0	26645
 828.5	26606
 829.0	26643
 829.5	26563
 829.9	26549
 830.4	26602
 830.9	26575
 831.4	26599
 831.9	26531
 832.3	26595
 832.8	26519
 833.3	26515
 833.8	26591
 834.2	26578
 834.7	26403
 835.2	26489
 835.7	26483
 836.1	26476
 836.6	26445
 837.1	26437
 837.6	26435
 838.0	26465
 838.5	26475
 839.0	26471
 839.5	26459
 839.9	26366
 840.4	26371
 840.9	26322
 841.4	26351
 841.8	26381
 842.3	26379
 842.8	26390
 843.3	26373
 843.7	26259
 844.2	26244
 844.7	26319
 845.1	26286
 845.6	26195
 846.1	26206
 846.6	26237
 847.0	26121
 847.5	26161
 848.0	26131
 848.4	26157
 848.9	26103
 849.4	26073
 849.8	26086
 850.3	26081
 850.8	26115
 851.3	26055
 851.7	26041
 852.2	26024
 852.7	26006
 853.1	25992
 853.6	25908
 854.1	25940
 854.5	25885
 855.0	25866
 855.5	25841
 855.9	25892
 856.4	25849
 856.9	25752
 857.3	25801
 857.8	25743
 858.3	25749
 858.7	25689
 859.2	25711
 859.7	25698
 860.1	25739
 860.6	25694
 861.1	25613
 861.5	25642
 862.0	25623
 862.4	25575
 862.9	25513
 863.4	25538
 863.8	25521
 864.3	25499
 864.8	25395
 865.2	25419
 865.7	25419
 866.1	25425
 866.6	25319
 867.1	25386
 867.5	25355
 868.0	25320
 868.5	25258
 868.9	25235
 869.4	25331
 869.8	25279
 870.3	25223
 870.8	25293
 871.2	25230
 871.7	25222
 872.1	25162
 872.6	25199
 873.0	25152
 873.5	25225
 874.0	25197
 874.4	25039
 874.9	25039
 875.3	24961
 875.8	24827
 876.2	24569
 876.7	24382
 877.2	24007
 877.6	23583
 878.1	23180
