#xlabel Wavelength (nm)
#ylabel Spectrometer Array Counts
#title Exposure time is 12000 ms
## lambda	counts
 349.8	20721
 350.3	21041
 350.8	21327
 351.3	21547
 351.9	21655
 352.4	21768
 352.9	21831
 353.4	21771
 354.0	21756
 354.5	21802
 355.0	21798
 355.5	21811
 356.0	21765
 356.6	21720
 357.1	21773
 357.6	21745
 358.1	21783
 358.7	21720
 359.2	21740
 359.7	21753
 360.2	21798
 360.8	21759
 361.3	21860
 361.8	21793
 362.3	21828
 362.9	21781
 363.4	21866
 363.9	21864
 364.4	21895
 364.9	21789
 365.5	21875
 366.0	21849
 366.5	21805
 367.0	21849
 367.6	21875
 368.1	21878
 368.6	21802
 369.1	21865
 369.7	21919
 370.2	21823
 370.7	21830
 371.2	21875
 371.8	21932
 372.3	21845
 372.8	21927
 373.3	21937
 373.9	21869
 374.4	21887
 374.9	21943
 375.5	21818
 376.0	21957
 376.5	21907
 377.0	21938
 377.6	21875
 378.1	21952
 378.6	21875
 379.1	21882
 379.7	21859
 380.2	21938
 380.7	21941
 381.2	21886
 381.8	21878
 382.3	21914
 382.8	21894
 383.4	21942
 383.9	21887
 384.4	22055
 384.9	21945
 385.5	21959
 386.0	21967
 386.5	22040
 387.1	21969
 387.6	21981
 388.1	21973
 388.6	21998
 389.2	21979
 389.7	21999
 390.2	21971
 390.8	22080
 391.3	22034
 391.8	22023
 392.3	21997
 392.9	21981
 393.4	21973
 393.9	22049
 394.5	22044
 395.0	21979
 395.5	22004
 396.0	21997
 396.6	21959
 397.1	22060
 397.6	22054
 398.2	22047
 398.7	22043
 399.2	22155
 399.8	22009
 400.3	22077
 400.8	22129
 401.3	22086
 401.9	22099
 402.4	22126
 402.9	22103
 403.5	22135
 404.0	22107
 404.5	22051
 405.1	22054
 405.6	22155
 406.1	22121
 406.7	22124
 407.2	22119
 407.7	22204
 408.2	22191
 408.8	22193
 409.3	22215
 409.8	22248
 410.4	22217
 410.9	22211
 411.4	22145
 412.0	22220
 412.5	22267
 413.0	22205
 413.6	22245
 414.1	22198
 414.6	22225
 415.2	22277
 415.7	22204
 416.2	22247
 416.8	22226
 417.3	22203
 417.8	22223
 418.4	22321
 418.9	22243
 419.4	22391
 420.0	22255
 420.5	22323
 421.0	22251
 421.5	22343
 422.1	22311
 422.6	22370
 423.1	22395
 423.7	22352
 424.2	22327
 424.7	22363
 425.3	22340
 425.8	22356
 426.3	22333
 426.9	22399
 427.4	22324
 427.9	22452
 428.5	22381
 429.0	22417
 429.6	22367
 430.1	22453
 430.6	22439
 431.2	22362
 431.7	22470
 432.2	22421
 432.8	22390
 433.3	22506
 433.8	22497
 434.4	22459
 434.9	22466
 435.4	22516
 436.0	22483
 436.5	22475
 437.0	22549
 437.6	22508
 438.1	22567
 438.6	22575
 439.2	22597
 439.7	22588
 440.2	22523
 440.8	22550
 441.3	22555
 441.8	22558
 442.4	22513
 442.9	22547
 443.5	22597
 444.0	22582
 444.5	22610
 445.1	22503
 445.6	22541
 446.1	22571
 446.7	22584
 447.2	22601
 447.7	22578
 448.3	22647
 448.8	22602
 449.3	22639
 449.9	22565
 450.4	22675
 450.9	22711
 451.5	22705
 452.0	22667
 452.6	22675
 453.1	22736
 453.6	22745
 454.2	22606
 454.7	22682
 455.2	22701
 455.8	22754
 456.3	22683
 456.8	22818
 457.4	22732
 457.9	22739
 458.5	22794
 459.0	22743
 459.5	22792
 460.1	22733
 460.6	22787
 461.1	22771
 461.7	22827
 462.2	22779
 462.7	22815
 463.3	22732
 463.8	22811
 464.4	22885
 464.9	22812
 465.4	22893
 466.0	22769
 466.5	22862
 467.0	22776
 467.6	22849
 468.1	22951
 468.7	22874
 469.2	22785
 469.7	22890
 470.3	22859
 470.8	22904
 471.3	22879
 471.9	22825
 472.4	22889
 473.0	22926
 473.5	22947
 474.0	22935
 474.6	22932
 475.1	22933
 475.6	23009
 476.2	23022
 476.7	22993
 477.3	23049
 477.8	22986
 478.3	22899
 478.9	23132
 479.4	23002
 479.9	23010
 480.5	22991
 481.0	23018
 481.6	23044
 482.1	23111
 482.6	23081
 483.2	23090
 483.7	23214
 484.2	23144
 484.8	22961
 485.3	23063
 485.9	23147
 486.4	23101
 486.9	23129
 487.5	23074
 488.0	23085
 488.6	23153
 489.1	23168
 489.6	23217
 490.2	23212
 490.7	23168
 491.2	23125
 491.8	23192
 492.3	23135
 492.9	23195
 493.4	23197
 493.9	23223
 494.5	23222
 495.0	23294
 495.6	23209
 496.1	23222
 496.6	23289
 497.2	23193
 497.7	23156
 498.2	23259
 498.8	23283
 499.3	23184
 499.9	23252
 500.4	23248
 500.9	23230
 501.5	23218
 502.0	23293
 502.6	23265
 503.1	23367
 503.6	23317
 504.2	23267
 504.7	23275
 505.2	23342
 505.8	23324
 506.3	23422
 506.9	23431
 507.4	23384
 507.9	23350
 508.5	23391
 509.0	23437
 509.6	23515
 510.1	23482
 510.6	23517
 511.2	23537
 511.7	23515
 512.2	23599
 512.8	23617
 513.3	23569
 513.9	23554
 514.4	23619
 514.9	23710
 515.5	23592
 516.0	23685
 516.6	23639
 517.1	23700
 517.6	23680
 518.2	23662
 518.7	23584
 519.3	23654
 519.8	23695
 520.3	23685
 520.9	23641
 521.4	23648
 521.9	23722
 522.5	23626
 523.0	23652
 523.6	23698
 524.1	23538
 524.6	23587
 525.2	23614
 525.7	23658
 526.3	23571
 526.8	23667
 527.3	23615
 527.9	23641
 528.4	23620
 528.9	23685
 529.5	23701
 530.0	23686
 530.6	23743
 531.1	23747
 531.6	23651
 532.2	23779
 532.7	23741
 533.3	23782
 533.8	23910
 534.3	23961
 534.9	23946
 535.4	23890
 536.0	23974
 536.5	24011
 537.0	23971
 537.6	24001
 538.1	24058
 538.6	24085
 539.2	24013
 539.7	24038
 540.3	24155
 540.8	24109
 541.3	24065
 541.9	24106
 542.4	24105
 543.0	24179
 543.5	24139
 544.0	24112
 544.6	24159
 545.1	24178
 545.6	24218
 546.2	24199
 546.7	24093
 547.3	24168
 547.8	24145
 548.3	24203
 548.9	24098
 549.4	24098
 550.0	24076
 550.5	24148
 551.0	24199
 551.6	24139
 552.1	24156
 552.6	24163
 553.2	24125
 553.7	24108
 554.3	24151
 554.8	24233
 555.3	24069
 555.9	24129
 556.4	24099
 556.9	24211
 557.5	24242
 558.0	24199
 558.6	24167
 559.1	24243
 559.6	24227
 560.2	24226
 560.7	24229
 561.3	24200
 561.8	24172
 562.3	24307
 562.9	24291
 563.4	24324
 563.9	24309
 564.5	24331
 565.0	24311
 565.6	24339
 566.1	24336
 566.6	24342
 567.2	24334
 567.7	24445
 568.2	24353
 568.8	24367
 569.3	24333
 569.9	24412
 570.4	24394
 570.9	24361
 571.5	24358
 572.0	24359
 572.5	24417
 573.1	24359
 573.6	24423
 574.1	24411
 574.7	24404
 575.2	24376
 575.8	24425
 576.3	24507
 576.8	24467
 577.4	24473
 577.9	24502
 578.4	24451
 579.0	24461
 579.5	24584
 580.1	24492
 580.6	24507
 581.1	24592
 581.7	24625
 582.2	24548
 582.7	24596
 583.3	24651
 583.8	24619
 584.3	24560
 584.9	24628
 585.4	24633
 586.0	24603
 586.5	24639
 587.0	24604
 587.6	24695
 588.1	24639
 588.6	24724
 589.2	24659
 589.7	24683
 590.2	24669
 590.8	24669
 591.3	24693
 591.9	24637
 592.4	24714
 592.9	24641
 593.5	24623
 594.0	24624
 594.5	24647
 595.1	24626
 595.6	24601
 596.1	24662
 596.7	24633
 597.2	24677
 597.7	24607
 598.3	24623
 598.8	24593
 599.3	24603
 599.9	24574
 600.4	24569
 601.0	24579
 601.5	24571
 602.0	24564
 602.6	24499
 603.1	24520
 603.6	24532
 604.2	24648
 604.7	24534
 605.2	24619
 605.8	24522
 606.3	24547
 606.8	24626
 607.4	24607
 607.9	24653
 608.4	24593
 609.0	24632
 609.5	24689
 610.0	24663
 610.6	24763
 611.1	24675
 611.6	24703
 612.2	24711
 612.7	24777
 613.2	24769
 613.8	24691
 614.3	24733
 614.8	24794
 615.4	24719
 615.9	24823
 616.4	24883
 617.0	24825
 617.5	24939
 618.0	24957
 618.6	24880
 619.1	24919
 619.6	25002
 620.2	25006
 620.7	25078
 621.2	25037
 621.8	25080
 622.3	25123
 622.8	25079
 623.4	25119
 623.9	25181
 624.4	25165
 625.0	25166
 625.5	25170
 626.0	25186
 626.6	25249
 627.1	25239
 627.6	25181
 628.2	25154
 628.7	25195
 629.2	25178
 629.8	25211
 630.3	25218
 630.8	25205
 631.4	25182
 631.9	25209
 632.4	25091
 632.9	25114
 633.5	25113
 634.0	25066
 634.5	25147
 635.1	25081
 635.6	25065
 636.1	25041
 636.7	25095
 637.2	25093
 637.7	24987
 638.3	25101
 638.8	25090
 639.3	25110
 639.8	25041
 640.4	25058
 640.9	25090
 641.4	24989
 642.0	24975
 642.5	24997
 643.0	24967
 643.6	25068
 644.1	25025
 644.6	25035
 645.1	25078
 645.7	25053
 646.2	25008
 646.7	25039
 647.3	25071
 647.8	25083
 648.3	25057
 648.9	25094
 649.4	24997
 649.9	25073
 650.4	25093
 651.0	25139
 651.5	25156
 652.0	25218
 652.6	25163
 653.1	25240
 653.6	25153
 654.1	25233
 654.7	25188
 655.2	25283
 655.7	25322
 656.3	25340
 656.8	25283
 657.3	25341
 657.8	25291
 658.4	25291
 658.9	25305
 659.4	25391
 659.9	25394
 660.5	25357
 661.0	25415
 661.5	25469
 662.1	25428
 662.6	25435
 663.1	25404
 663.6	25490
 664.2	25439
 664.7	25412
 665.2	25336
 665.7	25473
 666.3	25435
 666.8	25451
 667.3	25455
 667.8	25407
 668.4	25449
 668.9	25457
 669.4	25441
 669.9	25480
 670.5	25407
 671.0	25430
 671.5	25376
 672.0	25441
 672.6	25443
 673.1	25483
 673.6	25386
 674.1	25423
 674.7	25417
 675.2	25470
 675.7	25320
 676.2	25323
 676.8	25399
 677.3	25421
 677.8	25340
 678.3	25463
 678.9	25393
 679.4	25332
 679.9	25399
 680.4	25406
 681.0	25371
 681.5	25419
 682.0	25380
 682.5	25423
 683.1	25321
 683.6	25373
 684.1	25313
 684.6	25431
 685.1	25368
 685.7	25393
 686.2	25372
 686.7	25333
 687.2	25311
 687.8	25407
 688.3	25345
 688.8	25376
 689.3	25305
 689.8	25351
 690.4	25335
 690.9	25350
 691.4	25356
 691.9	25385
 692.4	25342
 693.0	25425
 693.5	25393
 694.0	25379
 694.5	25375
 695.1	25351
 695.6	25306
 696.1	25401
 696.6	25378
 697.1	25404
 697.7	25437
 698.2	25359
 698.7	25389
 699.2	25354
 699.7	25368
 700.3	25348
 700.8	25311
 701.3	25437
 701.8	25387
 702.3	25337
 702.8	25340
 703.4	25320
 703.9	25334
 704.4	25325
 704.9	25299
 705.4	25301
 706.0	25396
 706.5	25394
 707.0	25298
 707.5	25291
 708.0	25327
 708.5	25265
 709.1	25347
 709.6	25305
 710.1	25267
 710.6	25241
 711.1	25239
 711.7	25263
 712.2	25255
 712.7	25269
 713.2	25239
 713.7	25238
 714.2	25176
 714.8	25270
 715.3	25204
 715.8	25201
 716.3	25205
 716.8	25106
 717.3	25089
 717.8	25203
 718.4	25212
 718.9	25137
 719.4	25239
 719.9	25127
 720.4	25179
 720.9	25184
 721.4	25179
 722.0	25217
 722.5	25205
 723.0	25189
 723.5	25215
 724.0	25175
 724.5	25163
 725.0	25203
 725.6	25135
 726.1	25195
 726.6	25329
 727.1	25264
 727.6	25313
 728.1	25346
 728.6	25294
 729.1	25295
 729.7	25283
 730.2	25319
 730.7	25351
 731.2	25398
 731.7	25388
 732.2	25411
 732.7	25383
 733.2	25431
 733.8	25409
 734.3	25430
 734.8	25409
 735.3	25433
 735.8	25427
 736.3	25394
 736.8	25437
 737.3	25495
 737.8	25441
 738.4	25433
 738.9	25383
 739.4	25489
 739.9	25471
 740.4	25488
 740.9	25469
 741.4	25467
 741.9	25469
 742.4	25489
 742.9	25466
 743.4	25575
 744.0	25481
 744.5	25479
 745.0	25498
 745.5	25590
 746.0	25563
 746.5	25575
 747.0	25509
 747.5	25495
 748.0	25471
 748.5	25493
 749.0	25503
 749.5	25614
 750.0	25431
 750.5	25499
 751.1	25501
 751.6	25515
 752.1	25502
 752.6	25459
 753.1	25501
 753.6	25428
 754.1	25399
 754.6	25447
 755.1	25401
 755.6	25418
 756.1	25329
 756.6	25442
 757.1	25400
 757.6	25389
 758.1	25356
 758.6	25364
 759.1	25286
 759.6	25341
 760.1	25273
 760.7	25236
 761.2	25322
 761.7	25261
 762.2	25244
 762.7	25297
 763.2	25145
 763.7	25247
 764.2	25171
 764.7	25177
 765.2	25209
 765.7	25174
 766.2	25130
 766.7	25185
 767.2	25125
 767.7	25141
 768.2	25121
 768.7	25080
 769.2	25065
 769.7	25122
 770.2	25090
 770.7	25085
 771.2	25057
 771.7	25038
 772.2	25052
 772.7	25105
 773.2	25080
 773.7	25035
 774.2	24977
 774.7	25030
 775.2	25011
 775.7	24990
 776.2	24982
 776.7	25013
 777.2	24935
 777.7	25022
 778.2	24993
 778.7	25047
 779.2	25060
 779.7	25092
 780.2	24913
 780.7	24989
 781.2	24997
 781.7	25073
 782.2	24988
 782.6	25069
 783.1	25078
 783.6	25039
 784.1	24997
 784.6	24986
 785.1	25001
 785.6	25005
 786.1	25043
 786.6	25058
 787.1	24998
 787.6	24997
 788.1	24988
 788.6	24977
 789.1	24963
 789.6	25002
 790.1	25027
 790.6	25029
 791.1	24921
 791.6	24927
 792.0	24948
 792.5	24992
 793.0	24967
 793.5	24962
 794.0	24897
 794.5	24994
 795.0	24962
 795.5	24942
 796.0	24955
 796.5	24883
 797.0	24913
 797.5	24971
 798.0	24801
 798.4	24839
 798.9	24821
 799.4	24837
 799.9	24845
 800.4	24685
 800.9	24801
 801.4	24869
 801.9	24825
 802.4	24733
 802.9	24802
 803.3	24802
 803.8	24758
 804.3	24699
 804.8	24760
 805.3	24712
 805.8	24683
 806.3	24684
 806.8	24658
 807.2	24653
 807.7	24620
 808.2	24641
 808.7	24551
 809.2	24557
 809.7	24487
 810.2	24547
 810.7	24475
 811.1	24491
 811.6	24499
 812.1	24443
 812.6	24389
 813.1	24444
 813.6	24455
 814.1	24432
 814.5	24385
 815.0	24410
 815.5	24362
 816.0	24314
 816.5	24380
 817.0	24321
 817.4	24298
 817.9	24331
 818.4	24259
 818.9	24348
 819.4	24298
 819.9	24267
 820.3	24231
 820.8	24231
 821.3	24245
 821.8	24239
 822.3	24186
 822.7	24161
 823.2	24234
 823.7	24172
 824.2	24180
 824.7	24150
 825.2	24173
 825.6	24146
 826.1	24132
 826.6	24192
 827.1	24177
 827.6	24163
 828.0	24097
 828.5	24064
 829.0	24111
 829.5	24044
 829.9	24050
 830.4	24117
 830.9	24099
 831.4	24130
 831.9	24075
 832.3	24159
 832.8	24092
 833.3	24099
 833.8	24183
 834.2	24171
 834.7	23998
 835.2	24101
 835.7	24103
 836.1	24103
 836.6	24087
 837.1	24082
 837.6	24091
 838.0	24127
 838.5	24151
 839.0	24155
 839.5	24145
 839.9	24055
 840.4	24067
 840.9	24024
 841.4	24069
 841.8	24098
 842.3	24111
 842.8	24131
 843.3	24128
 843.7	24016
 844.2	24005
 844.7	24095
 845.1	24069
 845.6	23978
 846.1	24004
 846.6	24035
 847.0	23923
 847.5	23982
 848.0	23961
 848.4	23999
 848.9	23957
 849.4	23939
 849.8	23963
 850.3	23962
 850.8	24011
 851.3	23968
 851.7	23958
 852.2	23961
 852.7	23954
 853.1	23935
 853.6	23872
 854.1	23913
 854.5	23874
 855.0	23862
 855.5	23845
 855.9	23909
 856.4	23894
 856.9	23804
 857.3	23861
 857.8	23821
 858.3	23858
 858.7	23807
 859.2	23834
 859.7	23821
 860.1	23883
 860.6	23853
 861.1	23783
 861.5	23827
 862.0	23822
 862.4	23797
 862.9	23748
 863.4	23783
 863.8	23782
 864.3	23779
 864.8	23689
 865.2	23731
 865.7	23743
 866.1	23764
 866.6	23663
 867.1	23753
 867.5	23729
 868.0	23703
 868.5	23651
 868.9	23638
 869.4	23741
 869.8	23699
 870.3	23643
 870.8	23717
 871.2	23663
 871.7	23652
 872.1	23591
 872.6	23650
 873.0	23627
 873.5	23721
 874.0	23723
 874.4	23611
 874.9	23675
 875.3	23667
 875.8	23605
 876.2	23408
 876.7	23262
 877.2	22881
 877.6	22400
 878.1	21912
