#xlabel Wavelength (nm)
#ylabel Spectrometer Array Counts
#title Exposure time is 12000 ms
## lambda	counts
 349.8	20664
 350.3	20943
 350.8	21217
 351.3	21447
 351.9	21569
 352.4	21693
 352.9	21767
 353.4	21722
 354.0	21717
 354.5	21771
 355.0	21766
 355.5	21786
 356.0	21746
 356.6	21695
 357.1	21752
 357.6	21730
 358.1	21763
 358.7	21704
 359.2	21727
 359.7	21741
 360.2	21789
 360.8	21747
 361.3	21846
 361.8	21786
 362.3	21820
 362.9	21770
 363.4	21851
 363.9	21846
 364.4	21874
 364.9	21771
 365.5	21856
 366.0	21836
 366.5	21786
 367.0	21835
 367.6	21854
 368.1	21861
 368.6	21783
 369.1	21842
 369.7	21903
 370.2	21805
 370.7	21809
 371.2	21857
 371.8	21913
 372.3	21823
 372.8	21910
 373.3	21922
 373.9	21849
 374.4	21873
 374.9	21922
 375.5	21793
 376.0	21935
 376.5	21883
 377.0	21915
 377.6	21859
 378.1	21937
 378.6	21859
 379.1	21869
 379.7	21841
 380.2	21921
 380.7	21922
 381.2	21870
 381.8	21853
 382.3	21901
 382.8	21871
 383.4	21919
 383.9	21868
 384.4	22034
 384.9	21923
 385.5	21939
 386.0	21950
 386.5	22027
 387.1	21947
 387.6	21967
 388.1	21955
 388.6	21975
 389.2	21958
 389.7	21980
 390.2	21951
 390.8	22060
 391.3	22016
 391.8	21998
 392.3	21977
 392.9	21962
 393.4	21951
 393.9	22023
 394.5	22021
 395.0	21959
 395.5	21979
 396.0	21974
 396.6	21930
 397.1	22038
 397.6	22035
 398.2	22031
 398.7	22026
 399.2	22132
 399.8	21991
 400.3	22059
 400.8	22102
 401.3	22067
 401.9	22076
 402.4	22099
 402.9	22081
 403.5	22107
 404.0	22087
 404.5	22028
 405.1	22027
 405.6	22131
 406.1	22097
 406.7	22093
 407.2	22095
 407.7	22180
 408.2	22169
 408.8	22169
 409.3	22188
 409.8	22227
 410.4	22187
 410.9	22193
 411.4	22121
 412.0	22198
 412.5	22241
 413.0	22184
 413.6	22224
 414.1	22176
 414.6	22199
 415.2	22247
 415.7	22179
 416.2	22222
 416.8	22201
 417.3	22177
 417.8	22194
 418.4	22292
 418.9	22221
 419.4	22366
 420.0	22229
 420.5	22297
 421.0	22221
 421.5	22315
 422.1	22283
 422.6	22343
 423.1	22367
 423.7	22327
 424.2	22300
 424.7	22339
 425.3	22313
 425.8	22323
 426.3	22303
 426.9	22375
 427.4	22294
 427.9	22426
 428.5	22351
 429.0	22385
 429.6	22334
 430.1	22424
 430.6	22406
 431.2	22331
 431.7	22440
 432.2	22393
 432.8	22358
 433.3	22481
 433.8	22465
 434.4	22430
 434.9	22433
 435.4	22486
 436.0	22450
 436.5	22445
 437.0	22515
 437.6	22478
 438.1	22539
 438.6	22543
 439.2	22566
 439.7	22553
 440.2	22487
 440.8	22519
 441.3	22526
 441.8	22519
 442.4	22483
 442.9	22514
 443.5	22568
 444.0	22549
 444.5	22574
 445.1	22478
 445.6	22506
 446.1	22538
 446.7	22554
 447.2	22569
 447.7	22546
 448.3	22618
 448.8	22571
 449.3	22605
 449.9	22531
 450.4	22645
 450.9	22675
 451.5	22671
 452.0	22633
 452.6	22637
 453.1	22705
 453.6	22708
 454.2	22570
 454.7	22643
 455.2	22669
 455.8	22714
 456.3	22650
 456.8	22793
 457.4	22697
 457.9	22707
 458.5	22755
 459.0	22706
 459.5	22756
 460.1	22694
 460.6	22745
 461.1	22737
 461.7	22792
 462.2	22735
 462.7	22781
 463.3	22699
 463.8	22774
 464.4	22849
 464.9	22774
 465.4	22855
 466.0	22740
 466.5	22821
 467.0	22741
 467.6	22810
 468.1	22914
 468.7	22831
 469.2	22750
 469.7	22854
 470.3	22830
 470.8	22868
 471.3	22839
 471.9	22790
 472.4	22851
 473.0	22890
 473.5	22905
 474.0	22897
 474.6	22891
 475.1	22887
 475.6	22972
 476.2	22975
 476.7	22951
 477.3	23014
 477.8	22948
 478.3	22858
 478.9	23088
 479.4	22961
 479.9	22976
 480.5	22951
 481.0	22979
 481.6	23003
 482.1	23069
 482.6	23039
 483.2	23047
 483.7	23165
 484.2	23099
 484.8	22914
 485.3	23019
 485.9	23105
 486.4	23060
 486.9	23081
 487.5	23029
 488.0	23042
 488.6	23109
 489.1	23118
 489.6	23176
 490.2	23164
 490.7	23120
 491.2	23083
 491.8	23154
 492.3	23091
 492.9	23148
 493.4	23152
 493.9	23177
 494.5	23176
 495.0	23252
 495.6	23164
 496.1	23179
 496.6	23247
 497.2	23151
 497.7	23112
 498.2	23215
 498.8	23235
 499.3	23140
 499.9	23208
 500.4	23203
 500.9	23186
 501.5	23175
 502.0	23249
 502.6	23216
 503.1	23319
 503.6	23271
 504.2	23224
 504.7	23231
 505.2	23289
 505.8	23279
 506.3	23374
 506.9	23389
 507.4	23334
 507.9	23303
 508.5	23342
 509.0	23383
 509.6	23462
 510.1	23429
 510.6	23461
 511.2	23487
 511.7	23462
 512.2	23537
 512.8	23565
 513.3	23518
 513.9	23498
 514.4	23575
 514.9	23659
 515.5	23541
 516.0	23632
 516.6	23581
 517.1	23649
 517.6	23627
 518.2	23602
 518.7	23535
 519.3	23598
 519.8	23641
 520.3	23641
 520.9	23589
 521.4	23598
 521.9	23673
 522.5	23578
 523.0	23604
 523.6	23645
 524.1	23482
 524.6	23540
 525.2	23569
 525.7	23609
 526.3	23524
 526.8	23619
 527.3	23563
 527.9	23591
 528.4	23570
 528.9	23631
 529.5	23647
 530.0	23631
 530.6	23691
 531.1	23695
 531.6	23599
 532.2	23722
 532.7	23679
 533.3	23723
 533.8	23857
 534.3	23898
 534.9	23887
 535.4	23832
 536.0	23913
 536.5	23953
 537.0	23915
 537.6	23945
 538.1	24003
 538.6	24021
 539.2	23953
 539.7	23974
 540.3	24095
 540.8	24050
 541.3	24001
 541.9	24047
 542.4	24046
 543.0	24120
 543.5	24082
 544.0	24046
 544.6	24103
 545.1	24122
 545.6	24155
 546.2	24137
 546.7	24038
 547.3	24110
 547.8	24086
 548.3	24139
 548.9	24045
 549.4	24048
 550.0	24013
 550.5	24089
 551.0	24137
 551.6	24077
 552.1	24101
 552.6	24104
 553.2	24067
 553.7	24038
 554.3	24094
 554.8	24167
 555.3	24007
 555.9	24071
 556.4	24038
 556.9	24149
 557.5	24180
 558.0	24129
 558.6	24107
 559.1	24180
 559.6	24163
 560.2	24169
 560.7	24175
 561.3	24136
 561.8	24114
 562.3	24249
 562.9	24230
 563.4	24267
 563.9	24252
 564.5	24271
 565.0	24253
 565.6	24277
 566.1	24276
 566.6	24279
 567.2	24271
 567.7	24380
 568.2	24283
 568.8	24298
 569.3	24271
 569.9	24345
 570.4	24332
 570.9	24297
 571.5	24298
 572.0	24295
 572.5	24349
 573.1	24299
 573.6	24356
 574.1	24345
 574.7	24340
 575.2	24313
 575.8	24359
 576.3	24449
 576.8	24401
 577.4	24415
 577.9	24443
 578.4	24381
 579.0	24400
 579.5	24527
 580.1	24426
 580.6	24443
 581.1	24531
 581.7	24554
 582.2	24479
 582.7	24531
 583.3	24582
 583.8	24550
 584.3	24497
 584.9	24565
 585.4	24563
 586.0	24540
 586.5	24571
 587.0	24538
 587.6	24623
 588.1	24573
 588.6	24656
 589.2	24593
 589.7	24611
 590.2	24599
 590.8	24599
 591.3	24628
 591.9	24567
 592.4	24642
 592.9	24569
 593.5	24554
 594.0	24557
 594.5	24585
 595.1	24557
 595.6	24531
 596.1	24600
 596.7	24567
 597.2	24607
 597.7	24534
 598.3	24553
 598.8	24525
 599.3	24541
 599.9	24511
 600.4	24503
 601.0	24519
 601.5	24507
 602.0	24495
 602.6	24433
 603.1	24457
 603.6	24457
 604.2	24583
 604.7	24473
 605.2	24549
 605.8	24454
 606.3	24481
 606.8	24562
 607.4	24543
 607.9	24584
 608.4	24525
 609.0	24563
 609.5	24615
 610.0	24592
 610.6	24696
 611.1	24605
 611.6	24643
 612.2	24639
 612.7	24706
 613.2	24708
 613.8	24626
 614.3	24661
 614.8	24724
 615.4	24646
 615.9	24751
 616.4	24813
 617.0	24760
 617.5	24870
 618.0	24883
 618.6	24806
 619.1	24848
 619.6	24929
 620.2	24925
 620.7	25002
 621.2	24961
 621.8	25006
 622.3	25046
 622.8	25003
 623.4	25046
 623.9	25113
 624.4	25087
 625.0	25096
 625.5	25097
 626.0	25109
 626.6	25179
 627.1	25165
 627.6	25107
 628.2	25074
 628.7	25119
 629.2	25099
 629.8	25130
 630.3	25143
 630.8	25124
 631.4	25109
 631.9	25135
 632.4	25015
 632.9	25043
 633.5	25037
 634.0	24996
 634.5	25078
 635.1	25009
 635.6	24993
 636.1	24971
 636.7	25022
 637.2	25021
 637.7	24914
 638.3	25026
 638.8	25014
 639.3	25041
 639.8	24975
 640.4	24987
 640.9	25018
 641.4	24917
 642.0	24903
 642.5	24923
 643.0	24895
 643.6	24995
 644.1	24951
 644.6	24965
 645.1	25011
 645.7	24979
 646.2	24940
 646.7	24962
 647.3	24996
 647.8	25014
 648.3	24981
 648.9	25023
 649.4	24925
 649.9	25006
 650.4	25023
 651.0	25070
 651.5	25093
 652.0	25144
 652.6	25086
 653.1	25174
 653.6	25081
 654.1	25163
 654.7	25117
 655.2	25211
 655.7	25251
 656.3	25269
 656.8	25212
 657.3	25275
 657.8	25213
 658.4	25219
 658.9	25230
 659.4	25315
 659.9	25318
 660.5	25285
 661.0	25343
 661.5	25392
 662.1	25353
 662.6	25368
 663.1	25331
 663.6	25426
 664.2	25370
 664.7	25342
 665.2	25261
 665.7	25405
 666.3	25363
 666.8	25374
 667.3	25382
 667.8	25335
 668.4	25369
 668.9	25386
 669.4	25371
 669.9	25405
 670.5	25336
 671.0	25354
 671.5	25305
 672.0	25371
 672.6	25373
 673.1	25413
 673.6	25311
 674.1	25354
 674.7	25348
 675.2	25399
 675.7	25249
 676.2	25251
 676.8	25323
 677.3	25346
 677.8	25265
 678.3	25391
 678.9	25317
 679.4	25256
 679.9	25335
 680.4	25339
 681.0	25297
 681.5	25347
 682.0	25310
 682.5	25347
 683.1	25249
 683.6	25307
 684.1	25242
 684.6	25358
 685.1	25294
 685.7	25323
 686.2	25298
 686.7	25257
 687.2	25243
 687.8	25334
 688.3	25270
 688.8	25297
 689.3	25234
 689.8	25272
 690.4	25262
 690.9	25275
 691.4	25284
 691.9	25311
 692.4	25271
 693.0	25355
 693.5	25322
 694.0	25308
 694.5	25309
 695.1	25279
 695.6	25238
 696.1	25323
 696.6	25307
 697.1	25333
 697.7	25365
 698.2	25287
 698.7	25320
 699.2	25280
 699.7	25294
 700.3	25277
 700.8	25246
 701.3	25365
 701.8	25323
 702.3	25269
 702.8	25275
 703.4	25251
 703.9	25262
 704.4	25259
 704.9	25231
 705.4	25231
 706.0	25329
 706.5	25320
 707.0	25229
 707.5	25220
 708.0	25255
 708.5	25198
 709.1	25276
 709.6	25235
 710.1	25198
 710.6	25172
 711.1	25169
 711.7	25191
 712.2	25186
 712.7	25201
 713.2	25171
 713.7	25173
 714.2	25114
 714.8	25205
 715.3	25138
 715.8	25139
 716.3	25138
 716.8	25038
 717.3	25022
 717.8	25137
 718.4	25149
 718.9	25070
 719.4	25170
 719.9	25061
 720.4	25112
 720.9	25128
 721.4	25118
 722.0	25155
 722.5	25137
 723.0	25127
 723.5	25147
 724.0	25108
 724.5	25101
 725.0	25139
 725.6	25065
 726.1	25126
 726.6	25265
 727.1	25201
 727.6	25247
 728.1	25279
 728.6	25225
 729.1	25230
 729.7	25215
 730.2	25251
 730.7	25286
 731.2	25327
 731.7	25319
 732.2	25338
 732.7	25314
 733.2	25366
 733.8	25343
 734.3	25368
 734.8	25340
 735.3	25368
 735.8	25359
 736.3	25329
 736.8	25374
 737.3	25430
 737.8	25373
 738.4	25369
 738.9	25318
 739.4	25418
 739.9	25407
 740.4	25419
 740.9	25394
 741.4	25397
 741.9	25405
 742.4	25429
 742.9	25406
 743.4	25505
 744.0	25414
 744.5	25409
 745.0	25422
 745.5	25517
 746.0	25493
 746.5	25503
 747.0	25439
 747.5	25426
 748.0	25403
 748.5	25429
 749.0	25439
 749.5	25549
 750.0	25363
 750.5	25426
 751.1	25434
 751.6	25445
 752.1	25434
 752.6	25395
 753.1	25432
 753.6	25365
 754.1	25333
 754.6	25383
 755.1	25338
 755.6	25349
 756.1	25263
 756.6	25374
 757.1	25337
 757.6	25328
 758.1	25290
 758.6	25298
 759.1	25230
 759.6	25274
 760.1	25215
 760.7	25175
 761.2	25258
 761.7	25198
 762.2	25180
 762.7	25231
 763.2	25084
 763.7	25187
 764.2	25108
 764.7	25115
 765.2	25148
 765.7	25110
 766.2	25071
 766.7	25127
 767.2	25063
 767.7	25080
 768.2	25064
 768.7	25018
 769.2	25007
 769.7	25064
 770.2	25031
 770.7	25023
 771.2	24998
 771.7	24980
 772.2	24994
 772.7	25041
 773.2	25021
 773.7	24973
 774.2	24912
 774.7	24969
 775.2	24959
 775.7	24935
 776.2	24922
 776.7	24958
 777.2	24875
 777.7	24965
 778.2	24942
 778.7	24991
 779.2	24997
 779.7	25039
 780.2	24854
 780.7	24935
 781.2	24945
 781.7	25023
 782.2	24929
 782.6	25012
 783.1	25026
 783.6	24988
 784.1	24946
 784.6	24933
 785.1	24947
 785.6	24950
 786.1	24981
 786.6	24999
 787.1	24935
 787.6	24941
 788.1	24934
 788.6	24925
 789.1	24901
 789.6	24950
 790.1	24971
 790.6	24975
 791.1	24862
 791.6	24873
 792.0	24889
 792.5	24937
 793.0	24913
 793.5	24912
 794.0	24847
 794.5	24941
 795.0	24905
 795.5	24886
 796.0	24893
 796.5	24827
 797.0	24863
 797.5	24917
 798.0	24751
 798.4	24787
 798.9	24771
 799.4	24786
 799.9	24791
 800.4	24638
 800.9	24754
 801.4	24820
 801.9	24773
 802.4	24689
 802.9	24753
 803.3	24750
 803.8	24713
 804.3	24646
 804.8	24715
 805.3	24663
 805.8	24642
 806.3	24628
 806.8	24618
 807.2	24610
 807.7	24573
 808.2	24594
 808.7	24507
 809.2	24511
 809.7	24439
 810.2	24509
 810.7	24432
 811.1	24453
 811.6	24457
 812.1	24395
 812.6	24347
 813.1	24396
 813.6	24418
 814.1	24393
 814.5	24339
 815.0	24369
 815.5	24322
 816.0	24273
 816.5	24338
 817.0	24278
 817.4	24262
 817.9	24296
 818.4	24215
 818.9	24308
 819.4	24262
 819.9	24225
 820.3	24191
 820.8	24188
 821.3	24201
 821.8	24199
 822.3	24145
 822.7	24119
 823.2	24188
 823.7	24133
 824.2	24143
 824.7	24111
 825.2	24135
 825.6	24110
 826.1	24093
 826.6	24147
 827.1	24131
 827.6	24126
 828.0	24059
 828.5	24025
 829.0	24075
 829.5	24006
 829.9	24012
 830.4	24079
 830.9	24060
 831.4	24090
 831.9	24030
 832.3	24122
 832.8	24049
 833.3	24052
 833.8	24140
 834.2	24137
 834.7	23962
 835.2	24064
 835.7	24063
 836.1	24067
 836.6	24046
 837.1	24044
 837.6	24051
 838.0	24087
 838.5	24111
 839.0	24114
 839.5	24109
 839.9	24022
 840.4	24033
 840.9	23992
 841.4	24030
 841.8	24059
 842.3	24076
 842.8	24095
 843.3	24092
 843.7	23981
 844.2	23970
 844.7	24062
 845.1	24037
 845.6	23942
 846.1	23967
 846.6	23999
 847.0	23889
 847.5	23944
 848.0	23923
 848.4	23963
 848.9	23923
 849.4	23906
 849.8	23928
 850.3	23927
 850.8	23978
 851.3	23933
 851.7	23922
 852.2	23923
 852.7	23914
 853.1	23901
 853.6	23838
 854.1	23882
 854.5	23837
 855.0	23828
 855.5	23813
 855.9	23880
 856.4	23854
 856.9	23767
 857.3	23829
 857.8	23790
 858.3	23824
 858.7	23772
 859.2	23804
 859.7	23786
 860.1	23846
 860.6	23820
 861.1	23747
 861.5	23796
 862.0	23788
 862.4	23765
 862.9	23715
 863.4	23747
 863.8	23753
 864.3	23745
 864.8	23661
 865.2	23697
 865.7	23711
 866.1	23738
 866.6	23634
 867.1	23728
 867.5	23701
 868.0	23676
 868.5	23621
 868.9	23617
 869.4	23720
 869.8	23672
 870.3	23615
 870.8	23685
 871.2	23631
 871.7	23622
 872.1	23560
 872.6	23617
 873.0	23581
 873.5	23674
 874.0	23673
 874.4	23544
 874.9	23597
 875.3	23574
 875.8	23490
 876.2	23263
 876.7	23110
 877.2	22738
 877.6	22284
 878.1	21860
