#xlabel Wavelength (nm)
#ylabel Spectrometer Array Counts
#title Exposure time is 12000 ms
## lambda	counts
 349.8	20568
 350.3	20812
 350.8	21054
 351.3	21267
 351.9	21397
 352.4	21539
 352.9	21637
 353.4	21616
 354.0	21643
 354.5	21720
 355.0	21728
 355.5	21765
 356.0	21731
 356.6	21695
 357.1	21747
 357.6	21721
 358.1	21758
 358.7	21695
 359.2	21711
 359.7	21729
 360.2	21770
 360.8	21729
 361.3	21833
 361.8	21763
 362.3	21795
 362.9	21744
 363.4	21827
 363.9	21823
 364.4	21855
 364.9	21749
 365.5	21833
 366.0	21810
 366.5	21759
 367.0	21809
 367.6	21836
 368.1	21838
 368.6	21758
 369.1	21814
 369.7	21880
 370.2	21778
 370.7	21785
 371.2	21834
 371.8	21888
 372.3	21793
 372.8	21878
 373.3	21891
 373.9	21827
 374.4	21847
 374.9	21897
 375.5	21768
 376.0	21905
 376.5	21861
 377.0	21893
 377.6	21837
 378.1	21914
 378.6	21831
 379.1	21843
 379.7	21818
 380.2	21901
 380.7	21898
 381.2	21847
 381.8	21832
 382.3	21873
 382.8	21847
 383.4	21899
 383.9	21849
 384.4	22009
 384.9	21901
 385.5	21918
 386.0	21925
 386.5	22001
 387.1	21925
 387.6	21941
 388.1	21932
 388.6	21957
 389.2	21935
 389.7	21954
 390.2	21933
 390.8	22035
 391.3	21992
 391.8	21980
 392.3	21954
 392.9	21936
 393.4	21932
 393.9	22002
 394.5	22001
 395.0	21934
 395.5	21964
 396.0	21957
 396.6	21910
 397.1	22015
 397.6	22011
 398.2	22004
 398.7	22005
 399.2	22110
 399.8	21968
 400.3	22037
 400.8	22078
 401.3	22045
 401.9	22057
 402.4	22085
 402.9	22066
 403.5	22091
 404.0	22067
 404.5	22007
 405.1	22011
 405.6	22116
 406.1	22076
 406.7	22078
 407.2	22078
 407.7	22159
 408.2	22144
 408.8	22145
 409.3	22169
 409.8	22209
 410.4	22167
 410.9	22170
 411.4	22104
 412.0	22169
 412.5	22223
 413.0	22163
 413.6	22207
 414.1	22159
 414.6	22177
 415.2	22229
 415.7	22158
 416.2	22203
 416.8	22185
 417.3	22163
 417.8	22179
 418.4	22281
 418.9	22203
 419.4	22349
 420.0	22207
 420.5	22282
 421.0	22208
 421.5	22295
 422.1	22266
 422.6	22323
 423.1	22343
 423.7	22311
 424.2	22287
 424.7	22323
 425.3	22295
 425.8	22311
 426.3	22294
 426.9	22359
 427.4	22275
 427.9	22412
 428.5	22336
 429.0	22371
 429.6	22325
 430.1	22405
 430.6	22388
 431.2	22318
 431.7	22419
 432.2	22378
 432.8	22349
 433.3	22461
 433.8	22457
 434.4	22419
 434.9	22419
 435.4	22473
 436.0	22437
 436.5	22429
 437.0	22506
 437.6	22465
 438.1	22522
 438.6	22529
 439.2	22555
 439.7	22544
 440.2	22484
 440.8	22505
 441.3	22507
 441.8	22509
 442.4	22472
 442.9	22503
 443.5	22558
 444.0	22539
 444.5	22563
 445.1	22463
 445.6	22498
 446.1	22529
 446.7	22541
 447.2	22553
 447.7	22531
 448.3	22607
 448.8	22559
 449.3	22590
 449.9	22518
 450.4	22637
 450.9	22666
 451.5	22663
 452.0	22626
 452.6	22635
 453.1	22699
 453.6	22699
 454.2	22562
 454.7	22636
 455.2	22661
 455.8	22712
 456.3	22639
 456.8	22782
 457.4	22691
 457.9	22698
 458.5	22749
 459.0	22700
 459.5	22753
 460.1	22697
 460.6	22741
 461.1	22729
 461.7	22780
 462.2	22731
 462.7	22774
 463.3	22693
 463.8	22769
 464.4	22839
 464.9	22770
 465.4	22847
 466.0	22735
 466.5	22817
 467.0	22735
 467.6	22809
 468.1	22911
 468.7	22830
 469.2	22746
 469.7	22853
 470.3	22822
 470.8	22863
 471.3	22837
 471.9	22783
 472.4	22842
 473.0	22887
 473.5	22906
 474.0	22896
 474.6	22888
 475.1	22879
 475.6	22969
 476.2	22975
 476.7	22946
 477.3	23007
 477.8	22940
 478.3	22858
 478.9	23088
 479.4	22960
 479.9	22975
 480.5	22953
 481.0	22974
 481.6	23001
 482.1	23070
 482.6	23046
 483.2	23046
 483.7	23169
 484.2	23103
 484.8	22921
 485.3	23022
 485.9	23108
 486.4	23061
 486.9	23085
 487.5	23031
 488.0	23038
 488.6	23108
 489.1	23120
 489.6	23180
 490.2	23171
 490.7	23123
 491.2	23080
 491.8	23153
 492.3	23098
 492.9	23151
 493.4	23157
 493.9	23181
 494.5	23182
 495.0	23256
 495.6	23165
 496.1	23181
 496.6	23251
 497.2	23151
 497.7	23117
 498.2	23219
 498.8	23237
 499.3	23140
 499.9	23211
 500.4	23205
 500.9	23187
 501.5	23173
 502.0	23254
 502.6	23225
 503.1	23330
 503.6	23281
 504.2	23225
 504.7	23232
 505.2	23305
 505.8	23285
 506.3	23383
 506.9	23391
 507.4	23342
 507.9	23311
 508.5	23346
 509.0	23397
 509.6	23471
 510.1	23438
 510.6	23471
 511.2	23487
 511.7	23473
 512.2	23553
 512.8	23573
 513.3	23525
 513.9	23509
 514.4	23583
 514.9	23671
 515.5	23547
 516.0	23638
 516.6	23599
 517.1	23662
 517.6	23637
 518.2	23613
 518.7	23545
 519.3	23609
 519.8	23653
 520.3	23645
 520.9	23597
 521.4	23606
 521.9	23671
 522.5	23585
 523.0	23607
 523.6	23654
 524.1	23489
 524.6	23547
 525.2	23574
 525.7	23620
 526.3	23531
 526.8	23629
 527.3	23570
 527.9	23599
 528.4	23573
 528.9	23639
 529.5	23662
 530.0	23641
 530.6	23703
 531.1	23705
 531.6	23605
 532.2	23731
 532.7	23693
 533.3	23735
 533.8	23872
 534.3	23913
 534.9	23903
 535.4	23844
 536.0	23923
 536.5	23969
 537.0	23926
 537.6	23959
 538.1	24015
 538.6	24041
 539.2	23974
 539.7	23993
 540.3	24111
 540.8	24067
 541.3	24023
 541.9	24059
 542.4	24065
 543.0	24137
 543.5	24099
 544.0	24069
 544.6	24116
 545.1	24136
 545.6	24177
 546.2	24153
 546.7	24049
 547.3	24122
 547.8	24099
 548.3	24159
 548.9	24060
 549.4	24061
 550.0	24028
 550.5	24105
 551.0	24151
 551.6	24097
 552.1	24116
 552.6	24123
 553.2	24081
 553.7	24068
 554.3	24105
 554.8	24186
 555.3	24025
 555.9	24093
 556.4	24056
 556.9	24169
 557.5	24199
 558.0	24150
 558.6	24119
 559.1	24199
 559.6	24186
 560.2	24183
 560.7	24192
 561.3	24157
 561.8	24130
 562.3	24265
 562.9	24247
 563.4	24282
 563.9	24271
 564.5	24289
 565.0	24267
 565.6	24295
 566.1	24295
 566.6	24295
 567.2	24287
 567.7	24401
 568.2	24305
 568.8	24316
 569.3	24293
 569.9	24368
 570.4	24353
 570.9	24322
 571.5	24320
 572.0	24311
 572.5	24375
 573.1	24321
 573.6	24382
 574.1	24365
 574.7	24359
 575.2	24335
 575.8	24381
 576.3	24463
 576.8	24423
 577.4	24439
 577.9	24459
 578.4	24407
 579.0	24415
 579.5	24545
 580.1	24449
 580.6	24465
 581.1	24549
 581.7	24575
 582.2	24505
 582.7	24551
 583.3	24601
 583.8	24574
 584.3	24519
 584.9	24590
 585.4	24590
 586.0	24561
 586.5	24596
 587.0	24559
 587.6	24648
 588.1	24597
 588.6	24677
 589.2	24617
 589.7	24641
 590.2	24634
 590.8	24624
 591.3	24656
 591.9	24594
 592.4	24669
 592.9	24596
 593.5	24581
 594.0	24582
 594.5	24607
 595.1	24590
 595.6	24557
 596.1	24623
 596.7	24591
 597.2	24633
 597.7	24558
 598.3	24578
 598.8	24549
 599.3	24558
 599.9	24539
 600.4	24531
 601.0	24544
 601.5	24528
 602.0	24521
 602.6	24460
 603.1	24483
 603.6	24487
 604.2	24604
 604.7	24498
 605.2	24578
 605.8	24478
 606.3	24507
 606.8	24594
 607.4	24567
 607.9	24607
 608.4	24551
 609.0	24591
 609.5	24643
 610.0	24612
 610.6	24714
 611.1	24632
 611.6	24666
 612.2	24664
 612.7	24738
 613.2	24730
 613.8	24652
 614.3	24693
 614.8	24753
 615.4	24679
 615.9	24785
 616.4	24843
 617.0	24790
 617.5	24901
 618.0	24915
 618.6	24839
 619.1	24876
 619.6	24958
 620.2	24961
 620.7	25039
 621.2	24996
 621.8	25037
 622.3	25079
 622.8	25039
 623.4	25079
 623.9	25144
 624.4	25127
 625.0	25129
 625.5	25127
 626.0	25145
 626.6	25207
 627.1	25200
 627.6	25143
 628.2	25113
 628.7	25151
 629.2	25131
 629.8	25169
 630.3	25171
 630.8	25161
 631.4	25139
 631.9	25166
 632.4	25051
 632.9	25077
 633.5	25074
 634.0	25031
 634.5	25111
 635.1	25039
 635.6	25021
 636.1	24999
 636.7	25055
 637.2	25054
 637.7	24948
 638.3	25056
 638.8	25044
 639.3	25066
 639.8	25001
 640.4	25017
 640.9	25047
 641.4	24949
 642.0	24936
 642.5	24959
 643.0	24923
 643.6	25023
 644.1	24981
 644.6	24993
 645.1	25039
 645.7	25011
 646.2	24973
 646.7	24987
 647.3	25026
 647.8	25039
 648.3	25017
 648.9	25053
 649.4	24951
 649.9	25032
 650.4	25053
 651.0	25102
 651.5	25115
 652.0	25177
 652.6	25119
 653.1	25203
 653.6	25112
 654.1	25195
 654.7	25149
 655.2	25245
 655.7	25285
 656.3	25295
 656.8	25242
 657.3	25303
 657.8	25247
 658.4	25251
 658.9	25263
 659.4	25346
 659.9	25349
 660.5	25315
 661.0	25372
 661.5	25423
 662.1	25386
 662.6	25395
 663.1	25359
 663.6	25450
 664.2	25399
 664.7	25370
 665.2	25294
 665.7	25439
 666.3	25397
 666.8	25407
 667.3	25415
 667.8	25369
 668.4	25405
 668.9	25415
 669.4	25405
 669.9	25434
 670.5	25361
 671.0	25387
 671.5	25331
 672.0	25399
 672.6	25406
 673.1	25446
 673.6	25346
 674.1	25385
 674.7	25378
 675.2	25428
 675.7	25279
 676.2	25282
 676.8	25355
 677.3	25373
 677.8	25298
 678.3	25422
 678.9	25350
 679.4	25287
 679.9	25355
 680.4	25365
 681.0	25327
 681.5	25378
 682.0	25335
 682.5	25375
 683.1	25281
 683.6	25333
 684.1	25268
 684.6	25390
 685.1	25326
 685.7	25344
 686.2	25326
 686.7	25286
 687.2	25270
 687.8	25361
 688.3	25299
 688.8	25327
 689.3	25263
 689.8	25309
 690.4	25293
 690.9	25306
 691.4	25317
 691.9	25343
 692.4	25303
 693.0	25387
 693.5	25357
 694.0	25333
 694.5	25333
 695.1	25310
 695.6	25261
 696.1	25349
 696.6	25334
 697.1	25364
 697.7	25390
 698.2	25310
 698.7	25349
 699.2	25306
 699.7	25321
 700.3	25305
 700.8	25275
 701.3	25391
 701.8	25354
 702.3	25299
 702.8	25305
 703.4	25281
 703.9	25296
 704.4	25289
 704.9	25259
 705.4	25261
 706.0	25350
 706.5	25347
 707.0	25257
 707.5	25247
 708.0	25281
 708.5	25225
 709.1	25307
 709.6	25264
 710.1	25225
 710.6	25201
 711.1	25199
 711.7	25223
 712.2	25217
 712.7	25225
 713.2	25195
 713.7	25195
 714.2	25139
 714.8	25229
 715.3	25166
 715.8	25161
 716.3	25163
 716.8	25067
 717.3	25047
 717.8	25164
 718.4	25169
 718.9	25099
 719.4	25197
 719.9	25085
 720.4	25141
 720.9	25151
 721.4	25147
 722.0	25174
 722.5	25160
 723.0	25145
 723.5	25173
 724.0	25131
 724.5	25122
 725.0	25164
 725.6	25096
 726.1	25157
 726.6	25287
 727.1	25225
 727.6	25273
 728.1	25304
 728.6	25251
 729.1	25253
 729.7	25244
 730.2	25277
 730.7	25310
 731.2	25357
 731.7	25347
 732.2	25363
 732.7	25338
 733.2	25391
 733.8	25367
 734.3	25388
 734.8	25363
 735.3	25392
 735.8	25381
 736.3	25353
 736.8	25397
 737.3	25455
 737.8	25396
 738.4	25394
 738.9	25341
 739.4	25441
 739.9	25431
 740.4	25444
 740.9	25426
 741.4	25425
 741.9	25426
 742.4	25450
 742.9	25431
 743.4	25531
 744.0	25442
 744.5	25438
 745.0	25455
 745.5	25549
 746.0	25517
 746.5	25534
 747.0	25469
 747.5	25452
 748.0	25431
 748.5	25449
 749.0	25464
 749.5	25572
 750.0	25386
 750.5	25452
 751.1	25457
 751.6	25468
 752.1	25463
 752.6	25419
 753.1	25461
 753.6	25393
 754.1	25359
 754.6	25407
 755.1	25362
 755.6	25378
 756.1	25283
 756.6	25401
 757.1	25360
 757.6	25349
 758.1	25317
 758.6	25324
 759.1	25253
 759.6	25299
 760.1	25238
 760.7	25193
 761.2	25287
 761.7	25218
 762.2	25204
 762.7	25259
 763.2	25109
 763.7	25207
 764.2	25133
 764.7	25138
 765.2	25171
 765.7	25134
 766.2	25092
 766.7	25146
 767.2	25085
 767.7	25101
 768.2	25082
 768.7	25039
 769.2	25029
 769.7	25081
 770.2	25049
 770.7	25043
 771.2	25020
 771.7	25003
 772.2	25007
 772.7	25064
 773.2	25036
 773.7	24994
 774.2	24933
 774.7	24983
 775.2	24969
 775.7	24953
 776.2	24943
 776.7	24973
 777.2	24893
 777.7	24981
 778.2	24962
 778.7	25007
 779.2	25017
 779.7	25052
 780.2	24871
 780.7	24951
 781.2	24958
 781.7	25031
 782.2	24943
 782.6	25031
 783.1	25039
 783.6	24999
 784.1	24964
 784.6	24954
 785.1	24961
 785.6	24965
 786.1	25003
 786.6	25015
 787.1	24953
 787.6	24951
 788.1	24948
 788.6	24937
 789.1	24923
 789.6	24969
 790.1	24986
 790.6	24988
 791.1	24884
 791.6	24890
 792.0	24904
 792.5	24949
 793.0	24929
 793.5	24927
 794.0	24859
 794.5	24954
 795.0	24921
 795.5	24899
 796.0	24915
 796.5	24844
 797.0	24870
 797.5	24928
 798.0	24761
 798.4	24799
 798.9	24777
 799.4	24801
 799.9	24805
 800.4	24653
 800.9	24763
 801.4	24825
 801.9	24781
 802.4	24695
 802.9	24764
 803.3	24759
 803.8	24718
 804.3	24651
 804.8	24715
 805.3	24662
 805.8	24645
 806.3	24639
 806.8	24622
 807.2	24612
 807.7	24578
 808.2	24599
 808.7	24508
 809.2	24517
 809.7	24445
 810.2	24513
 810.7	24437
 811.1	24456
 811.6	24457
 812.1	24405
 812.6	24353
 813.1	24401
 813.6	24421
 814.1	24393
 814.5	24344
 815.0	24370
 815.5	24319
 816.0	24273
 816.5	24335
 817.0	24285
 817.4	24261
 817.9	24299
 818.4	24213
 818.9	24308
 819.4	24259
 819.9	24231
 820.3	24195
 820.8	24194
 821.3	24198
 821.8	24202
 822.3	24143
 822.7	24122
 823.2	24189
 823.7	24140
 824.2	24142
 824.7	24108
 825.2	24133
 825.6	24109
 826.1	24092
 826.6	24151
 827.1	24131
 827.6	24123
 828.0	24055
 828.5	24023
 829.0	24073
 829.5	24002
 829.9	24012
 830.4	24079
 830.9	24057
 831.4	24089
 831.9	24029
 832.3	24116
 832.8	24053
 833.3	24049
 833.8	24140
 834.2	24133
 834.7	23959
 835.2	24061
 835.7	24061
 836.1	24059
 836.6	24041
 837.1	24039
 837.6	24049
 838.0	24088
 838.5	24108
 839.0	24114
 839.5	24105
 839.9	24019
 840.4	24029
 840.9	23986
 841.4	24026
 841.8	24056
 842.3	24067
 842.8	24087
 843.3	24086
 843.7	23972
 844.2	23963
 844.7	24052
 845.1	24029
 845.6	23938
 846.1	23964
 846.6	23993
 847.0	23883
 847.5	23943
 848.0	23919
 848.4	23959
 848.9	23917
 849.4	23897
 849.8	23920
 850.3	23920
 850.8	23971
 851.3	23924
 851.7	23917
 852.2	23916
 852.7	23905
 853.1	23893
 853.6	23833
 854.1	23876
 854.5	23828
 855.0	23819
 855.5	23807
 855.9	23870
 856.4	23851
 856.9	23757
 857.3	23823
 857.8	23785
 858.3	23823
 858.7	23769
 859.2	23795
 859.7	23781
 860.1	23843
 860.6	23809
 861.1	23737
 861.5	23782
 862.0	23783
 862.4	23753
 862.9	23705
 863.4	23740
 863.8	23740
 864.3	23739
 864.8	23645
 865.2	23695
 865.7	23707
 866.1	23725
 866.6	23629
 867.1	23716
 867.5	23694
 868.0	23671
 868.5	23618
 868.9	23613
 869.4	23721
 869.8	23674
 870.3	23621
 870.8	23699
 871.2	23645
 871.7	23642
 872.1	23575
 872.6	23614
 873.0	23580
 873.5	23653
 874.0	23619
 874.4	23465
 874.9	23480
 875.3	23413
 875.8	23294
 876.2	23049
 876.7	22893
 877.2	22553
 877.6	22165
 878.1	21821
