#xlabel Wavelength (nm)
#ylabel Spectrometer Array Counts
#title Exposure time is 11000 ms
## lambda	counts
 349.8	18121
 350.3	18381
 350.8	18627
 351.3	18823
 351.9	18936
 352.4	19060
 352.9	19132
 353.4	19104
 354.0	19109
 354.5	19155
 355.0	19157
 355.5	19177
 356.0	19130
 356.6	19100
 357.1	19147
 357.6	19123
 358.1	19148
 358.7	19084
 359.2	19097
 359.7	19115
 360.2	19151
 360.8	19114
 361.3	19211
 361.8	19152
 362.3	19182
 362.9	19128
 363.4	19203
 363.9	19204
 364.4	19228
 364.9	19130
 365.5	19206
 366.0	19187
 366.5	19131
 367.0	19177
 367.6	19204
 368.1	19193
 368.6	19121
 369.1	19176
 369.7	19226
 370.2	19147
 370.7	19143
 371.2	19182
 371.8	19234
 372.3	19145
 372.8	19224
 373.3	19235
 373.9	19170
 374.4	19180
 374.9	19229
 375.5	19109
 376.0	19231
 376.5	19189
 377.0	19209
 377.6	19146
 378.1	19223
 378.6	19148
 379.1	19148
 379.7	19127
 380.2	19192
 380.7	19190
 381.2	19136
 381.8	19127
 382.3	19166
 382.8	19135
 383.4	19181
 383.9	19128
 384.4	19278
 384.9	19180
 385.5	19198
 386.0	19190
 386.5	19261
 387.1	19183
 387.6	19198
 388.1	19199
 388.6	19213
 389.2	19189
 389.7	19211
 390.2	19177
 390.8	19262
 391.3	19219
 391.8	19209
 392.3	19183
 392.9	19173
 393.4	19150
 393.9	19220
 394.5	19207
 395.0	19146
 395.5	19167
 396.0	19157
 396.6	19119
 397.1	19207
 397.6	19193
 398.2	19195
 398.7	19187
 399.2	19277
 399.8	19146
 400.3	19212
 400.8	19250
 401.3	19215
 401.9	19224
 402.4	19240
 402.9	19222
 403.5	19247
 404.0	19223
 404.5	19171
 405.1	19163
 405.6	19250
 406.1	19216
 406.7	19214
 407.2	19207
 407.7	19285
 408.2	19265
 408.8	19257
 409.3	19278
 409.8	19315
 410.4	19263
 410.9	19262
 411.4	19195
 412.0	19253
 412.5	19293
 413.0	19234
 413.6	19273
 414.1	19222
 414.6	19255
 415.2	19290
 415.7	19215
 416.2	19255
 416.8	19239
 417.3	19208
 417.8	19226
 418.4	19308
 418.9	19231
 419.4	19357
 420.0	19231
 420.5	19293
 421.0	19228
 421.5	19305
 422.1	19279
 422.6	19321
 423.1	19339
 423.7	19305
 424.2	19284
 424.7	19308
 425.3	19287
 425.8	19297
 426.3	19273
 426.9	19328
 427.4	19265
 427.9	19368
 428.5	19299
 429.0	19330
 429.6	19277
 430.1	19344
 430.6	19330
 431.2	19253
 431.7	19337
 432.2	19295
 432.8	19255
 433.3	19347
 433.8	19341
 434.4	19297
 434.9	19298
 435.4	19334
 436.0	19300
 436.5	19283
 437.0	19347
 437.6	19316
 438.1	19355
 438.6	19354
 439.2	19379
 439.7	19367
 440.2	19298
 440.8	19330
 441.3	19330
 441.8	19333
 442.4	19298
 442.9	19322
 443.5	19357
 444.0	19348
 444.5	19375
 445.1	19284
 445.6	19310
 446.1	19330
 446.7	19336
 447.2	19345
 447.7	19321
 448.3	19381
 448.8	19331
 449.3	19354
 449.9	19278
 450.4	19367
 450.9	19387
 451.5	19371
 452.0	19323
 452.6	19322
 453.1	19367
 453.6	19359
 454.2	19233
 454.7	19298
 455.2	19299
 455.8	19336
 456.3	19263
 456.8	19388
 457.4	19297
 457.9	19303
 458.5	19344
 459.0	19301
 459.5	19335
 460.1	19283
 460.6	19334
 461.1	19311
 461.7	19359
 462.2	19307
 462.7	19352
 463.3	19273
 463.8	19347
 464.4	19407
 464.9	19340
 465.4	19402
 466.0	19294
 466.5	19363
 467.0	19280
 467.6	19352
 468.1	19424
 468.7	19349
 469.2	19271
 469.7	19351
 470.3	19313
 470.8	19346
 471.3	19309
 471.9	19255
 472.4	19303
 473.0	19331
 473.5	19341
 474.0	19323
 474.6	19322
 475.1	19294
 475.6	19361
 476.2	19361
 476.7	19333
 477.3	19387
 477.8	19312
 478.3	19232
 478.9	19434
 479.4	19306
 479.9	19309
 480.5	19286
 481.0	19297
 481.6	19313
 482.1	19361
 482.6	19336
 483.2	19334
 483.7	19439
 484.2	19355
 484.8	19184
 485.3	19277
 485.9	19351
 486.4	19294
 486.9	19307
 487.5	19258
 488.0	19251
 488.6	19306
 489.1	19309
 489.6	19360
 490.2	19347
 490.7	19293
 491.2	19259
 491.8	19311
 492.3	19257
 492.9	19309
 493.4	19311
 493.9	19325
 494.5	19329
 495.0	19397
 495.6	19310
 496.1	19324
 496.6	19384
 497.2	19301
 497.7	19263
 498.2	19358
 498.8	19382
 499.3	19295
 499.9	19344
 500.4	19337
 500.9	19316
 501.5	19296
 502.0	19359
 502.6	19329
 503.1	19406
 503.6	19358
 504.2	19297
 504.7	19291
 505.2	19344
 505.8	19316
 506.3	19379
 506.9	19367
 507.4	19319
 507.9	19277
 508.5	19286
 509.0	19312
 509.6	19363
 510.1	19310
 510.6	19339
 511.2	19343
 511.7	19307
 512.2	19359
 512.8	19371
 513.3	19316
 513.9	19298
 514.4	19347
 514.9	19413
 515.5	19305
 516.0	19384
 516.6	19350
 517.1	19403
 517.6	19385
 518.2	19367
 518.7	19302
 519.3	19367
 519.8	19420
 520.3	19423
 520.9	19376
 521.4	19390
 521.9	19452
 522.5	19384
 523.0	19419
 523.6	19452
 524.1	19302
 524.6	19359
 525.2	19383
 525.7	19414
 526.3	19328
 526.8	19414
 527.3	19358
 527.9	19379
 528.4	19348
 528.9	19399
 529.5	19409
 530.0	19381
 530.6	19419
 531.1	19411
 531.6	19310
 532.2	19421
 532.7	19357
 533.3	19373
 533.8	19491
 534.3	19505
 534.9	19479
 535.4	19409
 536.0	19463
 536.5	19496
 537.0	19440
 537.6	19445
 538.1	19487
 538.6	19491
 539.2	19414
 539.7	19416
 540.3	19513
 540.8	19468
 541.3	19413
 541.9	19437
 542.4	19440
 543.0	19500
 543.5	19455
 544.0	19431
 544.6	19485
 545.1	19482
 545.6	19527
 546.2	19503
 546.7	19414
 547.3	19478
 547.8	19454
 548.3	19509
 548.9	19429
 549.4	19434
 550.0	19398
 550.5	19466
 551.0	19518
 551.6	19458
 552.1	19485
 552.6	19485
 553.2	19458
 553.7	19429
 554.3	19473
 554.8	19541
 555.3	19387
 555.9	19461
 556.4	19409
 556.9	19502
 557.5	19529
 558.0	19470
 558.6	19443
 559.1	19518
 559.6	19491
 560.2	19483
 560.7	19472
 561.3	19438
 561.8	19407
 562.3	19521
 562.9	19493
 563.4	19521
 563.9	19506
 564.5	19503
 565.0	19483
 565.6	19502
 566.1	19492
 566.6	19496
 567.2	19476
 567.7	19587
 568.2	19478
 568.8	19500
 569.3	19463
 569.9	19539
 570.4	19524
 570.9	19486
 571.5	19478
 572.0	19464
 572.5	19524
 573.1	19457
 573.6	19507
 574.1	19496
 574.7	19491
 575.2	19452
 575.8	19481
 576.3	19554
 576.8	19506
 577.4	19513
 577.9	19513
 578.4	19465
 579.0	19463
 579.5	19560
 580.1	19475
 580.6	19467
 581.1	19542
 581.7	19550
 582.2	19472
 582.7	19510
 583.3	19547
 583.8	19509
 584.3	19449
 584.9	19496
 585.4	19498
 586.0	19461
 586.5	19490
 587.0	19438
 587.6	19513
 588.1	19455
 588.6	19530
 589.2	19461
 589.7	19482
 590.2	19467
 590.8	19468
 591.3	19491
 591.9	19435
 592.4	19500
 592.9	19436
 593.5	19435
 594.0	19433
 594.5	19454
 595.1	19441
 595.6	19435
 596.1	19494
 596.7	19467
 597.2	19510
 597.7	19453
 598.3	19471
 598.8	19443
 599.3	19471
 599.9	19447
 600.4	19451
 601.0	19461
 601.5	19448
 602.0	19449
 602.6	19399
 603.1	19418
 603.6	19407
 604.2	19511
 604.7	19411
 605.2	19481
 605.8	19391
 606.3	19415
 606.8	19481
 607.4	19446
 607.9	19471
 608.4	19410
 609.0	19436
 609.5	19477
 610.0	19442
 610.6	19533
 611.1	19426
 611.6	19450
 612.2	19440
 612.7	19492
 613.2	19471
 613.8	19385
 614.3	19406
 614.8	19447
 615.4	19365
 615.9	19433
 616.4	19475
 617.0	19407
 617.5	19491
 618.0	19486
 618.6	19389
 619.1	19405
 619.6	19468
 620.2	19437
 620.7	19479
 621.2	19421
 621.8	19448
 622.3	19456
 622.8	19398
 623.4	19419
 623.9	19473
 624.4	19431
 625.0	19421
 625.5	19423
 626.0	19437
 626.6	19477
 627.1	19470
 627.6	19417
 628.2	19386
 628.7	19419
 629.2	19405
 629.8	19437
 630.3	19465
 630.8	19451
 631.4	19439
 631.9	19473
 632.4	19373
 632.9	19409
 633.5	19417
 634.0	19387
 634.5	19487
 635.1	19425
 635.6	19413
 636.1	19401
 636.7	19481
 637.2	19477
 637.7	19395
 638.3	19502
 638.8	19508
 639.3	19522
 639.8	19490
 640.4	19504
 640.9	19537
 641.4	19448
 642.0	19449
 642.5	19471
 643.0	19447
 643.6	19534
 644.1	19496
 644.6	19501
 645.1	19542
 645.7	19520
 646.2	19481
 646.7	19497
 647.3	19523
 647.8	19518
 648.3	19497
 648.9	19527
 649.4	19433
 649.9	19504
 650.4	19504
 651.0	19535
 651.5	19543
 652.0	19588
 652.6	19518
 653.1	19595
 653.6	19490
 654.1	19570
 654.7	19506
 655.2	19577
 655.7	19607
 656.3	19612
 656.8	19541
 657.3	19593
 657.8	19534
 658.4	19513
 658.9	19511
 659.4	19595
 659.9	19583
 660.5	19545
 661.0	19589
 661.5	19631
 662.1	19580
 662.6	19591
 663.1	19542
 663.6	19627
 664.2	19585
 664.7	19548
 665.2	19467
 665.7	19600
 666.3	19564
 666.8	19570
 667.3	19581
 667.8	19537
 668.4	19573
 668.9	19583
 669.4	19569
 669.9	19611
 670.5	19541
 671.0	19563
 671.5	19523
 672.0	19595
 672.6	19607
 673.1	19629
 673.6	19549
 674.1	19586
 674.7	19578
 675.2	19641
 675.7	19499
 676.2	19512
 676.8	19562
 677.3	19597
 677.8	19525
 678.3	19647
 678.9	19581
 679.4	19539
 679.9	19599
 680.4	19616
 681.0	19582
 681.5	19626
 682.0	19599
 682.5	19624
 683.1	19545
 683.6	19607
 684.1	19547
 684.6	19654
 685.1	19590
 685.7	19625
 686.2	19586
 686.7	19553
 687.2	19543
 687.8	19624
 688.3	19561
 688.8	19593
 689.3	19531
 689.8	19561
 690.4	19560
 690.9	19572
 691.4	19561
 691.9	19601
 692.4	19549
 693.0	19624
 693.5	19591
 694.0	19574
 694.5	19567
 695.1	19543
 695.6	19511
 696.1	19582
 696.6	19561
 697.1	19583
 697.7	19610
 698.2	19547
 698.7	19569
 699.2	19531
 699.7	19535
 700.3	19522
 700.8	19500
 701.3	19620
 701.8	19583
 702.3	19527
 702.8	19539
 703.4	19505
 703.9	19532
 704.4	19537
 704.9	19499
 705.4	19514
 706.0	19630
 706.5	19615
 707.0	19532
 707.5	19528
 708.0	19567
 708.5	19519
 709.1	19601
 709.6	19566
 710.1	19545
 710.6	19525
 711.1	19535
 711.7	19568
 712.2	19582
 712.7	19591
 713.2	19575
 713.7	19583
 714.2	19543
 714.8	19635
 715.3	19582
 715.8	19587
 716.3	19601
 716.8	19511
 717.3	19496
 717.8	19615
 718.4	19630
 718.9	19563
 719.4	19639
 719.9	19550
 720.4	19602
 720.9	19608
 721.4	19599
 722.0	19618
 722.5	19605
 723.0	19587
 723.5	19599
 724.0	19555
 724.5	19551
 725.0	19562
 725.6	19494
 726.1	19539
 726.6	19659
 727.1	19595
 727.6	19636
 728.1	19648
 728.6	19606
 729.1	19588
 729.7	19579
 730.2	19599
 730.7	19642
 731.2	19665
 731.7	19655
 732.2	19659
 732.7	19637
 733.2	19689
 733.8	19663
 734.3	19673
 734.8	19641
 735.3	19657
 735.8	19641
 736.3	19607
 736.8	19636
 737.3	19671
 737.8	19619
 738.4	19610
 738.9	19557
 739.4	19643
 739.9	19628
 740.4	19625
 740.9	19621
 741.4	19615
 741.9	19611
 742.4	19628
 742.9	19612
 743.4	19710
 744.0	19625
 744.5	19626
 745.0	19645
 745.5	19725
 746.0	19707
 746.5	19713
 747.0	19663
 747.5	19650
 748.0	19621
 748.5	19642
 749.0	19668
 749.5	19761
 750.0	19601
 750.5	19676
 751.1	19695
 751.6	19691
 752.1	19690
 752.6	19663
 753.1	19702
 753.6	19638
 754.1	19619
 754.6	19679
 755.1	19641
 755.6	19660
 756.1	19587
 756.6	19701
 757.1	19671
 757.6	19658
 758.1	19642
 758.6	19671
 759.1	19603
 759.6	19650
 760.1	19608
 760.7	19587
 761.2	19677
 761.7	19624
 762.2	19619
 762.7	19683
 763.2	19538
 763.7	19648
 764.2	19591
 764.7	19602
 765.2	19648
 765.7	19629
 766.2	19593
 766.7	19658
 767.2	19625
 767.7	19643
 768.2	19632
 768.7	19609
 769.2	19611
 769.7	19669
 770.2	19645
 770.7	19649
 771.2	19641
 771.7	19619
 772.2	19645
 772.7	19695
 773.2	19687
 773.7	19640
 774.2	19591
 774.7	19654
 775.2	19653
 775.7	19633
 776.2	19629
 776.7	19661
 777.2	19588
 777.7	19672
 778.2	19665
 778.7	19707
 779.2	19719
 779.7	19759
 780.2	19596
 780.7	19671
 781.2	19682
 781.7	19759
 782.2	19677
 782.6	19761
 783.1	19770
 783.6	19731
 784.1	19710
 784.6	19696
 785.1	19717
 785.6	19707
 786.1	19748
 786.6	19765
 787.1	19710
 787.6	19719
 788.1	19717
 788.6	19705
 789.1	19706
 789.6	19752
 790.1	19774
 790.6	19778
 791.1	19681
 791.6	19692
 792.0	19724
 792.5	19768
 793.0	19762
 793.5	19758
 794.0	19704
 794.5	19799
 795.0	19797
 795.5	19773
 796.0	19798
 796.5	19753
 797.0	19787
 797.5	19833
 798.0	19699
 798.4	19753
 798.9	19742
 799.4	19780
 799.9	19798
 800.4	19669
 800.9	19775
 801.4	19864
 801.9	19833
 802.4	19771
 802.9	19855
 803.3	19857
 803.8	19837
 804.3	19792
 804.8	19867
 805.3	19831
 805.8	19837
 806.3	19842
 806.8	19839
 807.2	19848
 807.7	19828
 808.2	19871
 808.7	19793
 809.2	19822
 809.7	19763
 810.2	19843
 810.7	19788
 811.1	19820
 811.6	19832
 812.1	19794
 812.6	19763
 813.1	19821
 813.6	19853
 814.1	19835
 814.5	19800
 815.0	19835
 815.5	19809
 816.0	19772
 816.5	19855
 817.0	19807
 817.4	19797
 817.9	19841
 818.4	19783
 818.9	19879
 819.4	19834
 819.9	19822
 820.3	19792
 820.8	19811
 821.3	19816
 821.8	19846
 822.3	19788
 822.7	19773
 823.2	19841
 823.7	19797
 824.2	19802
 824.7	19792
 825.2	19816
 825.6	19801
 826.1	19797
 826.6	19855
 827.1	19843
 827.6	19845
 828.0	19789
 828.5	19771
 829.0	19813
 829.5	19757
 829.9	19767
 830.4	19831
 830.9	19813
 831.4	19847
 831.9	19807
 832.3	19897
 832.8	19836
 833.3	19837
 833.8	19926
 834.2	19915
 834.7	19763
 835.2	19868
 835.7	19872
 836.1	19870
 836.6	19855
 837.1	19863
 837.6	19873
 838.0	19913
 838.5	19945
 839.0	19945
 839.5	19935
 839.9	19859
 840.4	19871
 840.9	19839
 841.4	19882
 841.8	19907
 842.3	19925
 842.8	19947
 843.3	19951
 843.7	19847
 844.2	19847
 844.7	19939
 845.1	19909
 845.6	19839
 846.1	19861
 846.6	19894
 847.0	19793
 847.5	19853
 848.0	19844
 848.4	19885
 848.9	19852
 849.4	19846
 849.8	19879
 850.3	19875
 850.8	19925
 851.3	19887
 851.7	19892
 852.2	19897
 852.7	19892
 853.1	19869
 853.6	19833
 854.1	19877
 854.5	19850
 855.0	19839
 855.5	19838
 855.9	19907
 856.4	19899
 856.9	19814
 857.3	19886
 857.8	19864
 858.3	19910
 858.7	19876
 859.2	19893
 859.7	19883
 860.1	19946
 860.6	19925
 861.1	19870
 861.5	19927
 862.0	19938
 862.4	19917
 862.9	19882
 863.4	19929
 863.8	19938
 864.3	19943
 864.8	19865
 865.2	19918
 865.7	19945
 866.1	19966
 866.6	19887
 867.1	19975
 867.5	19957
 868.0	19938
 868.5	19893
 868.9	19903
 869.4	20009
 869.8	19969
 870.3	19920
 870.8	19993
 871.2	19946
 871.7	19939
 872.1	19895
 872.6	19950
 873.0	19929
 873.5	20019
 874.0	20012
 874.4	19907
 874.9	19953
 875.3	19920
 875.8	19824
 876.2	19634
 876.7	19494
 877.2	19183
 877.6	18794
 878.1	18443
