#xlabel Wavelength (nm)
#ylabel Spectrometer Array Counts
#title Exposure time is 11000 ms
## lambda	counts
 349.8	18361
 350.3	18616
 350.8	18869
 351.3	19077
 351.9	19191
 352.4	19330
 352.9	19418
 353.4	19401
 354.0	19415
 354.5	19471
 355.0	19485
 355.5	19499
 356.0	19465
 356.6	19425
 357.1	19481
 357.6	19457
 358.1	19486
 358.7	19424
 359.2	19441
 359.7	19461
 360.2	19502
 360.8	19469
 361.3	19570
 361.8	19517
 362.3	19553
 362.9	19507
 363.4	19589
 363.9	19594
 364.4	19629
 364.9	19539
 365.5	19615
 366.0	19602
 366.5	19551
 367.0	19608
 367.6	19637
 368.1	19641
 368.6	19574
 369.1	19638
 369.7	19695
 370.2	19619
 370.7	19623
 371.2	19673
 371.8	19732
 372.3	19655
 372.8	19743
 373.3	19761
 373.9	19703
 374.4	19733
 374.9	19781
 375.5	19678
 376.0	19807
 376.5	19779
 377.0	19808
 377.6	19761
 378.1	19850
 378.6	19791
 379.1	19799
 379.7	19791
 380.2	19875
 380.7	19882
 381.2	19849
 381.8	19847
 382.3	19890
 382.8	19875
 383.4	19933
 383.9	19883
 384.4	20043
 384.9	19947
 385.5	19969
 386.0	19975
 386.5	20054
 387.1	19984
 387.6	20015
 388.1	20021
 388.6	20047
 389.2	20039
 389.7	20068
 390.2	20060
 390.8	20158
 391.3	20138
 391.8	20147
 392.3	20151
 392.9	20157
 393.4	20159
 393.9	20246
 394.5	20263
 395.0	20219
 395.5	20255
 396.0	20263
 396.6	20238
 397.1	20345
 397.6	20346
 398.2	20354
 398.7	20361
 399.2	20459
 399.8	20328
 400.3	20400
 400.8	20449
 401.3	20425
 401.9	20443
 402.4	20471
 402.9	20465
 403.5	20505
 404.0	20503
 404.5	20467
 405.1	20477
 405.6	20590
 406.1	20579
 406.7	20600
 407.2	20621
 407.7	20715
 408.2	20726
 408.8	20744
 409.3	20789
 409.8	20842
 410.4	20828
 410.9	20847
 411.4	20796
 412.0	20876
 412.5	20941
 413.0	20900
 413.6	20961
 414.1	20926
 414.6	20973
 415.2	21022
 415.7	20974
 416.2	21033
 416.8	21034
 417.3	21029
 417.8	21055
 418.4	21162
 418.9	21107
 419.4	21256
 420.0	21149
 420.5	21227
 421.0	21175
 421.5	21272
 422.1	21259
 422.6	21324
 423.1	21356
 423.7	21334
 424.2	21324
 424.7	21370
 425.3	21359
 425.8	21385
 426.3	21373
 426.9	21446
 427.4	21395
 427.9	21522
 428.5	21470
 429.0	21525
 429.6	21505
 430.1	21601
 430.6	21624
 431.2	21587
 431.7	21710
 432.2	21707
 432.8	21702
 433.3	21842
 433.8	21873
 434.4	21871
 434.9	21907
 435.4	21986
 436.0	21990
 436.5	22007
 437.0	22093
 437.6	22086
 438.1	22149
 438.6	22169
 439.2	22202
 439.7	22199
 440.2	22137
 440.8	22182
 441.3	22182
 441.8	22186
 442.4	22157
 442.9	22183
 443.5	22221
 444.0	22220
 444.5	22254
 445.1	22159
 445.6	22204
 446.1	22248
 446.7	22281
 447.2	22307
 447.7	22309
 448.3	22410
 448.8	22400
 449.3	22465
 449.9	22444
 450.4	22584
 450.9	22659
 451.5	22698
 452.0	22709
 452.6	22763
 453.1	22868
 453.6	22915
 454.2	22833
 454.7	22952
 455.2	22999
 455.8	23079
 456.3	23045
 456.8	23189
 457.4	23142
 457.9	23163
 458.5	23217
 459.0	23191
 459.5	23238
 460.1	23195
 460.6	23249
 461.1	23232
 461.7	23282
 462.2	23236
 462.7	23277
 463.3	23203
 463.8	23277
 464.4	23349
 464.9	23299
 465.4	23377
 466.0	23293
 466.5	23380
 467.0	23329
 467.6	23420
 468.1	23526
 468.7	23487
 469.2	23437
 469.7	23562
 470.3	23567
 470.8	23632
 471.3	23633
 471.9	23633
 472.4	23711
 473.0	23779
 473.5	23823
 474.0	23843
 474.6	23879
 475.1	23895
 475.6	23994
 476.2	24022
 476.7	24023
 477.3	24103
 477.8	24064
 478.3	24006
 478.9	24235
 479.4	24149
 479.9	24183
 480.5	24196
 481.0	24248
 481.6	24289
 482.1	24383
 482.6	24386
 483.2	24433
 483.7	24564
 484.2	24531
 484.8	24403
 485.3	24518
 485.9	24622
 486.4	24609
 486.9	24651
 487.5	24639
 488.0	24661
 488.6	24744
 489.1	24785
 489.6	24848
 490.2	24863
 490.7	24843
 491.2	24819
 491.8	24893
 492.3	24851
 492.9	24914
 493.4	24922
 493.9	24947
 494.5	24947
 495.0	25009
 495.6	24920
 496.1	24927
 496.6	24987
 497.2	24893
 497.7	24867
 498.2	24940
 498.8	24951
 499.3	24880
 499.9	24933
 500.4	24937
 500.9	24931
 501.5	24943
 502.0	25035
 502.6	25038
 503.1	25153
 503.6	25151
 504.2	25140
 504.7	25195
 505.2	25300
 505.8	25324
 506.3	25467
 506.9	25532
 507.4	25563
 507.9	25590
 508.5	25681
 509.0	25789
 509.6	25917
 510.1	25935
 510.6	26028
 511.2	26099
 511.7	26141
 512.2	26253
 512.8	26324
 513.3	26327
 513.9	26354
 514.4	26439
 514.9	26547
 515.5	26458
 516.0	26537
 516.6	26502
 517.1	26549
 517.6	26518
 518.2	26482
 518.7	26399
 519.3	26439
 519.8	26443
 520.3	26403
 520.9	26346
 521.4	26321
 521.9	26350
 522.5	26240
 523.0	26234
 523.6	26256
 524.1	26095
 524.6	26135
 525.2	26153
 525.7	26191
 526.3	26128
 526.8	26232
 527.3	26188
 527.9	26236
 528.4	26241
 528.9	26331
 529.5	26375
 530.0	26396
 530.6	26483
 531.1	26538
 531.6	26495
 532.2	26659
 532.7	26684
 533.3	26782
 533.8	26951
 534.3	27054
 534.9	27103
 535.4	27119
 536.0	27246
 536.5	27340
 537.0	27377
 537.6	27441
 538.1	27548
 538.6	27615
 539.2	27603
 539.7	27669
 540.3	27800
 540.8	27797
 541.3	27788
 541.9	27847
 542.4	27867
 543.0	27947
 543.5	27917
 544.0	27897
 544.6	27937
 545.1	27960
 545.6	27983
 546.2	27966
 546.7	27869
 547.3	27931
 547.8	27893
 548.3	27934
 548.9	27836
 549.4	27827
 550.0	27787
 550.5	27843
 551.0	27877
 551.6	27821
 552.1	27827
 552.6	27833
 553.2	27777
 553.7	27758
 554.3	27799
 554.8	27871
 555.3	27726
 555.9	27798
 556.4	27780
 556.9	27897
 557.5	27935
 558.0	27913
 558.6	27910
 559.1	27987
 559.6	27997
 560.2	28029
 560.7	28060
 561.3	28042
 561.8	28046
 562.3	28191
 562.9	28187
 563.4	28255
 563.9	28257
 564.5	28289
 565.0	28299
 565.6	28331
 566.1	28338
 566.6	28353
 567.2	28348
 567.7	28450
 568.2	28397
 568.8	28404
 569.3	28391
 569.9	28461
 570.4	28442
 570.9	28428
 571.5	28432
 572.0	28433
 572.5	28505
 573.1	28456
 573.6	28532
 574.1	28529
 574.7	28546
 575.2	28535
 575.8	28609
 576.3	28694
 576.8	28675
 577.4	28713
 577.9	28754
 578.4	28751
 579.0	28788
 579.5	28922
 580.1	28868
 580.6	28923
 581.1	29023
 581.7	29079
 582.2	29050
 582.7	29116
 583.3	29179
 583.8	29179
 584.3	29158
 584.9	29231
 585.4	29257
 586.0	29262
 586.5	29319
 587.0	29307
 587.6	29397
 588.1	29367
 588.6	29446
 589.2	29399
 589.7	29435
 590.2	29425
 590.8	29415
 591.3	29447
 591.9	29381
 592.4	29427
 592.9	29349
 593.5	29326
 594.0	29307
 594.5	29301
 595.1	29249
 595.6	29196
 596.1	29230
 596.7	29171
 597.2	29189
 597.7	29098
 598.3	29094
 598.8	29044
 599.3	29027
 599.9	28959
 600.4	28935
 601.0	28932
 601.5	28901
 602.0	28879
 602.6	28830
 603.1	28842
 603.6	28850
 604.2	28935
 604.7	28856
 605.2	28930
 605.8	28859
 606.3	28895
 606.8	28979
 607.4	28983
 607.9	29043
 608.4	29009
 609.0	29077
 609.5	29143
 610.0	29143
 610.6	29269
 611.1	29210
 611.6	29289
 612.2	29322
 612.7	29405
 613.2	29445
 613.8	29415
 614.3	29496
 614.8	29572
 615.4	29567
 615.9	29709
 616.4	29807
 617.0	29806
 617.5	29929
 618.0	30010
 618.6	30014
 619.1	30103
 619.6	30234
 620.2	30309
 620.7	30441
 621.2	30473
 621.8	30555
 622.3	30647
 622.8	30671
 623.4	30743
 623.9	30847
 624.4	30861
 625.0	30883
 625.5	30887
 626.0	30926
 626.6	30983
 627.1	30973
 627.6	30923
 628.2	30890
 628.7	30929
 629.2	30916
 629.8	30918
 630.3	30901
 630.8	30866
 631.4	30809
 631.9	30796
 632.4	30650
 632.9	30629
 633.5	30587
 634.0	30515
 634.5	30525
 635.1	30427
 635.6	30384
 636.1	30317
 636.7	30302
 637.2	30267
 637.7	30131
 638.3	30195
 638.8	30135
 639.3	30133
 639.8	30035
 640.4	30034
 640.9	30029
 641.4	29922
 642.0	29884
 642.5	29877
 643.0	29847
 643.6	29923
 644.1	29869
 644.6	29877
 645.1	29890
 645.7	29895
 646.2	29843
 646.7	29874
 647.3	29893
 647.8	29924
 648.3	29900
 648.9	29957
 649.4	29883
 649.9	29966
 650.4	30003
 651.0	30068
 651.5	30101
 652.0	30176
 652.6	30153
 653.1	30263
 653.6	30202
 654.1	30285
 654.7	30283
 655.2	30402
 655.7	30462
 656.3	30495
 656.8	30479
 657.3	30559
 657.8	30547
 658.4	30583
 658.9	30623
 659.4	30711
 659.9	30730
 660.5	30723
 661.0	30782
 661.5	30841
 662.1	30813
 662.6	30837
 663.1	30815
 663.6	30906
 664.2	30863
 664.7	30844
 665.2	30787
 665.7	30894
 666.3	30856
 666.8	30851
 667.3	30850
 667.8	30819
 668.4	30833
 668.9	30831
 669.4	30800
 669.9	30815
 670.5	30737
 671.0	30747
 671.5	30695
 672.0	30727
 672.6	30707
 673.1	30735
 673.6	30631
 674.1	30644
 674.7	30623
 675.2	30651
 675.7	30514
 676.2	30486
 676.8	30545
 677.3	30534
 677.8	30452
 678.3	30531
 678.9	30457
 679.4	30390
 679.9	30439
 680.4	30421
 681.0	30371
 681.5	30387
 682.0	30339
 682.5	30362
 683.1	30263
 683.6	30290
 684.1	30225
 684.6	30319
 685.1	30257
 685.7	30267
 686.2	30237
 686.7	30195
 687.2	30187
 687.8	30244
 688.3	30191
 688.8	30211
 689.3	30148
 689.8	30180
 690.4	30167
 690.9	30179
 691.4	30202
 691.9	30209
 692.4	30186
 693.0	30250
 693.5	30218
 694.0	30211
 694.5	30203
 695.1	30185
 695.6	30150
 696.1	30223
 696.6	30213
 697.1	30225
 697.7	30255
 698.2	30182
 698.7	30211
 699.2	30179
 699.7	30180
 700.3	30130
 700.8	30107
 701.3	30185
 701.8	30149
 702.3	30089
 702.8	30092
 703.4	30069
 703.9	30044
 704.4	30006
 704.9	29960
 705.4	29955
 706.0	30013
 706.5	29977
 707.0	29882
 707.5	29849
 708.0	29865
 708.5	29789
 709.1	29829
 709.6	29770
 710.1	29708
 710.6	29666
 711.1	29625
 711.7	29611
 712.2	29583
 712.7	29563
 713.2	29505
 713.7	29475
 714.2	29395
 714.8	29451
 715.3	29359
 715.8	29319
 716.3	29298
 716.8	29195
 717.3	29154
 717.8	29227
 718.4	29215
 718.9	29143
 719.4	29216
 719.9	29111
 720.4	29153
 720.9	29174
 721.4	29164
 722.0	29203
 722.5	29196
 723.0	29205
 723.5	29238
 724.0	29211
 724.5	29211
 725.0	29266
 725.6	29220
 726.1	29295
 726.6	29415
 727.1	29374
 727.6	29435
 728.1	29468
 728.6	29441
 729.1	29459
 729.7	29446
 730.2	29489
 730.7	29526
 731.2	29569
 731.7	29572
 732.2	29600
 732.7	29577
 733.2	29629
 733.8	29602
 734.3	29644
 734.8	29634
 735.3	29675
 735.8	29683
 736.3	29680
 736.8	29737
 737.3	29799
 737.8	29758
 738.4	29767
 738.9	29725
 739.4	29830
 739.9	29819
 740.4	29852
 740.9	29833
 741.4	29837
 741.9	29834
 742.4	29859
 742.9	29842
 743.4	29916
 744.0	29823
 744.5	29822
 745.0	29823
 745.5	29886
 746.0	29855
 746.5	29859
 747.0	29797
 747.5	29767
 748.0	29735
 748.5	29749
 749.0	29748
 749.5	29813
 750.0	29649
 750.5	29678
 751.1	29661
 751.6	29647
 752.1	29612
 752.6	29567
 753.1	29591
 753.6	29498
 754.1	29455
 754.6	29471
 755.1	29403
 755.6	29387
 756.1	29282
 756.6	29354
 757.1	29299
 757.6	29258
 758.1	29194
 758.6	29170
 759.1	29070
 759.6	29085
 760.1	29006
 760.7	28935
 761.2	28992
 761.7	28923
 762.2	28880
 762.7	28883
 763.2	28745
 763.7	28793
 764.2	28701
 764.7	28665
 765.2	28661
 765.7	28591
 766.2	28530
 766.7	28535
 767.2	28451
 767.7	28422
 768.2	28365
 768.7	28304
 769.2	28265
 769.7	28276
 770.2	28226
 770.7	28198
 771.2	28147
 771.7	28104
 772.2	28097
 772.7	28117
 773.2	28084
 773.7	28011
 774.2	27952
 774.7	27977
 775.2	27935
 775.7	27901
 776.2	27869
 776.7	27891
 777.2	27801
 777.7	27859
 778.2	27825
 778.7	27849
 779.2	27846
 779.7	27863
 780.2	27700
 780.7	27753
 781.2	27743
 781.7	27793
 782.2	27712
 782.6	27772
 783.1	27763
 783.6	27724
 784.1	27674
 784.6	27665
 785.1	27665
 785.6	27658
 786.1	27677
 786.6	27679
 787.1	27623
 787.6	27607
 788.1	27589
 788.6	27568
 789.1	27546
 789.6	27560
 790.1	27563
 790.6	27550
 791.1	27444
 791.6	27427
 792.0	27416
 792.5	27428
 793.0	27393
 793.5	27360
 794.0	27287
 794.5	27349
 795.0	27289
 795.5	27261
 796.0	27231
 796.5	27156
 797.0	27150
 797.5	27166
 798.0	26983
 798.4	26986
 798.9	26941
 799.4	26922
 799.9	26899
 800.4	26723
 800.9	26791
 801.4	26803
 801.9	26727
 802.4	26606
 802.9	26629
 803.3	26587
 803.8	26517
 804.3	26428
 804.8	26443
 805.3	26360
 805.8	26300
 806.3	26251
 806.8	26205
 807.2	26153
 807.7	26091
 808.2	26068
 808.7	25953
 809.2	25925
 809.7	25819
 810.2	25851
 810.7	25746
 811.1	25719
 811.6	25680
 812.1	25601
 812.6	25525
 813.1	25537
 813.6	25530
 814.1	25477
 814.5	25404
 815.0	25391
 815.5	25313
 816.0	25249
 816.5	25279
 817.0	25199
 817.4	25157
 817.9	25160
 818.4	25061
 818.9	25125
 819.4	25055
 819.9	24998
 820.3	24951
 820.8	24926
 821.3	24908
 821.8	24899
 822.3	24816
 822.7	24772
 823.2	24823
 823.7	24754
 824.2	24735
 824.7	24692
 825.2	24691
 825.6	24643
 826.1	24621
 826.6	24658
 827.1	24621
 827.6	24602
 828.0	24530
 828.5	24487
 829.0	24516
 829.5	24443
 829.9	24434
 830.4	24477
 830.9	24441
 831.4	24462
 831.9	24395
 832.3	24458
 832.8	24378
 833.3	24374
 833.8	24437
 834.2	24423
 834.7	24260
 835.2	24346
 835.7	24339
 836.1	24322
 836.6	24286
 837.1	24281
 837.6	24273
 838.0	24304
 838.5	24315
 839.0	24304
 839.5	24287
 839.9	24199
 840.4	24200
 840.9	24149
 841.4	24186
 841.8	24199
 842.3	24203
 842.8	24209
 843.3	24195
 843.7	24083
 844.2	24065
 844.7	24138
 845.1	24101
 845.6	24013
 846.1	24025
 846.6	24046
 847.0	23935
 847.5	23975
 848.0	23944
 848.4	23971
 848.9	23916
 849.4	23879
 849.8	23884
 850.3	23881
 850.8	23911
 851.3	23851
 851.7	23832
 852.2	23823
 852.7	23803
 853.1	23771
 853.6	23697
 854.1	23726
 854.5	23675
 855.0	23645
 855.5	23623
 855.9	23670
 856.4	23631
 856.9	23539
 857.3	23571
 857.8	23515
 858.3	23526
 858.7	23457
 859.2	23470
 859.7	23457
 860.1	23496
 860.6	23453
 861.1	23365
 861.5	23388
 862.0	23368
 862.4	23321
 862.9	23261
 863.4	23278
 863.8	23261
 864.3	23233
 864.8	23138
 865.2	23150
 865.7	23149
 866.1	23153
 866.6	23050
 867.1	23108
 867.5	23081
 868.0	23041
 868.5	22976
 868.9	22958
 869.4	23049
 869.8	22996
 870.3	22943
 870.8	23011
 871.2	22953
 871.7	22949
 872.1	22885
 872.6	22930
 873.0	22894
 873.5	22965
 874.0	22934
 874.4	22799
 874.9	22812
 875.3	22742
 875.8	22615
 876.2	22381
 876.7	22200
 877.2	21840
 877.6	21406
 878.1	20977
