#xlabel Wavelength (nm)
#ylabel Spectrometer Array Counts
#title Exposure time is 11000 ms
## lambda	counts
 349.8	18328
 350.3	18573
 350.8	18813
 351.3	18999
 351.9	19121
 352.4	19249
 352.9	19331
 353.4	19313
 354.0	19327
 354.5	19384
 355.0	19401
 355.5	19427
 356.0	19393
 356.6	19366
 357.1	19429
 357.6	19406
 358.1	19444
 358.7	19379
 359.2	19399
 359.7	19421
 360.2	19467
 360.8	19432
 361.3	19535
 361.8	19482
 362.3	19514
 362.9	19472
 363.4	19553
 363.9	19554
 364.4	19587
 364.9	19494
 365.5	19579
 366.0	19563
 366.5	19519
 367.0	19567
 367.6	19595
 368.1	19599
 368.6	19538
 369.1	19597
 369.7	19649
 370.2	19574
 370.7	19583
 371.2	19630
 371.8	19689
 372.3	19613
 372.8	19699
 373.3	19718
 373.9	19663
 374.4	19684
 374.9	19740
 375.5	19633
 376.0	19767
 376.5	19737
 377.0	19768
 377.6	19719
 378.1	19810
 378.6	19748
 379.1	19761
 379.7	19746
 380.2	19832
 380.7	19835
 381.2	19800
 381.8	19807
 382.3	19850
 382.8	19836
 383.4	19887
 383.9	19842
 384.4	20003
 384.9	19906
 385.5	19931
 386.0	19937
 386.5	20013
 387.1	19944
 387.6	19975
 388.1	19973
 388.6	20006
 389.2	19993
 389.7	20028
 390.2	20016
 390.8	20119
 391.3	20096
 391.8	20112
 392.3	20111
 392.9	20114
 393.4	20117
 393.9	20201
 394.5	20220
 395.0	20180
 395.5	20213
 396.0	20219
 396.6	20197
 397.1	20306
 397.6	20305
 398.2	20313
 398.7	20316
 399.2	20416
 399.8	20290
 400.3	20360
 400.8	20409
 401.3	20383
 401.9	20405
 402.4	20433
 402.9	20430
 403.5	20466
 404.0	20461
 404.5	20426
 405.1	20438
 405.6	20551
 406.1	20538
 406.7	20557
 407.2	20577
 407.7	20674
 408.2	20683
 408.8	20700
 409.3	20746
 409.8	20804
 410.4	20783
 410.9	20803
 411.4	20759
 412.0	20842
 412.5	20898
 413.0	20858
 413.6	20917
 414.1	20890
 414.6	20928
 415.2	20986
 415.7	20934
 416.2	20993
 416.8	20990
 417.3	20988
 417.8	21022
 418.4	21119
 418.9	21067
 419.4	21214
 420.0	21109
 420.5	21182
 421.0	21134
 421.5	21224
 422.1	21215
 422.6	21278
 423.1	21314
 423.7	21287
 424.2	21279
 424.7	21330
 425.3	21317
 425.8	21343
 426.3	21331
 426.9	21404
 427.4	21355
 427.9	21479
 428.5	21432
 429.0	21484
 429.6	21460
 430.1	21559
 430.6	21582
 431.2	21543
 431.7	21671
 432.2	21665
 432.8	21659
 433.3	21801
 433.8	21834
 434.4	21828
 434.9	21871
 435.4	21942
 436.0	21946
 436.5	21966
 437.0	22051
 437.6	22043
 438.1	22115
 438.6	22123
 439.2	22155
 439.7	22157
 440.2	22102
 440.8	22138
 441.3	22145
 441.8	22147
 442.4	22113
 442.9	22148
 443.5	22183
 444.0	22173
 444.5	22205
 445.1	22118
 445.6	22161
 446.1	22205
 446.7	22234
 447.2	22268
 447.7	22275
 448.3	22373
 448.8	22355
 449.3	22422
 449.9	22407
 450.4	22545
 450.9	22613
 451.5	22655
 452.0	22669
 452.6	22720
 453.1	22826
 453.6	22875
 454.2	22795
 454.7	22904
 455.2	22956
 455.8	23033
 456.3	23003
 456.8	23148
 457.4	23098
 457.9	23123
 458.5	23173
 459.0	23148
 459.5	23194
 460.1	23154
 460.6	23201
 461.1	23192
 461.7	23239
 462.2	23189
 462.7	23236
 463.3	23159
 463.8	23239
 464.4	23307
 464.9	23257
 465.4	23339
 466.0	23259
 466.5	23339
 467.0	23293
 467.6	23377
 468.1	23483
 468.7	23446
 469.2	23399
 469.7	23518
 470.3	23529
 470.8	23589
 471.3	23595
 471.9	23591
 472.4	23671
 473.0	23739
 473.5	23780
 474.0	23803
 474.6	23834
 475.1	23857
 475.6	23953
 476.2	23982
 476.7	23984
 477.3	24060
 477.8	24021
 478.3	23966
 478.9	24195
 479.4	24108
 479.9	24142
 480.5	24147
 481.0	24207
 481.6	24249
 482.1	24343
 482.6	24345
 483.2	24390
 483.7	24524
 484.2	24491
 484.8	24359
 485.3	24483
 485.9	24581
 486.4	24566
 486.9	24617
 487.5	24593
 488.0	24631
 488.6	24705
 489.1	24743
 489.6	24807
 490.2	24826
 490.7	24801
 491.2	24777
 491.8	24859
 492.3	24813
 492.9	24872
 493.4	24884
 493.9	24904
 494.5	24906
 495.0	24967
 495.6	24886
 496.1	24889
 496.6	24942
 497.2	24860
 497.7	24823
 498.2	24905
 498.8	24912
 499.3	24835
 499.9	24892
 500.4	24897
 500.9	24895
 501.5	24904
 502.0	24990
 502.6	24999
 503.1	25114
 503.6	25111
 504.2	25107
 504.7	25153
 505.2	25254
 505.8	25283
 506.3	25428
 506.9	25495
 507.4	25523
 507.9	25556
 508.5	25648
 509.0	25745
 509.6	25880
 510.1	25898
 510.6	25991
 511.2	26061
 511.7	26107
 512.2	26217
 512.8	26287
 513.3	26291
 513.9	26314
 514.4	26399
 514.9	26506
 515.5	26417
 516.0	26500
 516.6	26461
 517.1	26510
 517.6	26478
 518.2	26442
 518.7	26365
 519.3	26393
 519.8	26398
 520.3	26363
 520.9	26308
 521.4	26291
 521.9	26313
 522.5	26211
 523.0	26191
 523.6	26214
 524.1	26055
 524.6	26093
 525.2	26111
 525.7	26156
 526.3	26095
 526.8	26191
 527.3	26154
 527.9	26199
 528.4	26197
 528.9	26283
 529.5	26328
 530.0	26353
 530.6	26446
 531.1	26495
 531.6	26455
 532.2	26620
 532.7	26639
 533.3	26736
 533.8	26910
 534.3	27015
 534.9	27061
 535.4	27081
 536.0	27209
 536.5	27303
 537.0	27326
 537.6	27397
 538.1	27506
 538.6	27579
 539.2	27564
 539.7	27635
 540.3	27756
 540.8	27761
 541.3	27750
 541.9	27811
 542.4	27828
 543.0	27906
 543.5	27879
 544.0	27863
 544.6	27899
 545.1	27924
 545.6	27942
 546.2	27933
 546.7	27827
 547.3	27890
 547.8	27859
 548.3	27893
 548.9	27794
 549.4	27785
 550.0	27743
 550.5	27807
 551.0	27837
 551.6	27781
 552.1	27791
 552.6	27790
 553.2	27738
 553.7	27721
 554.3	27757
 554.8	27829
 555.3	27686
 555.9	27759
 556.4	27743
 556.9	27860
 557.5	27896
 558.0	27870
 558.6	27869
 559.1	27946
 559.6	27961
 560.2	27987
 560.7	28015
 561.3	28005
 561.8	28007
 562.3	28151
 562.9	28153
 563.4	28217
 563.9	28217
 564.5	28251
 565.0	28257
 565.6	28288
 566.1	28303
 566.6	28317
 567.2	28312
 567.7	28421
 568.2	28350
 568.8	28361
 569.3	28349
 569.9	28418
 570.4	28402
 570.9	28390
 571.5	28393
 572.0	28396
 572.5	28462
 573.1	28413
 573.6	28493
 574.1	28484
 574.7	28509
 575.2	28499
 575.8	28563
 576.3	28660
 576.8	28641
 577.4	28673
 577.9	28714
 578.4	28712
 579.0	28750
 579.5	28882
 580.1	28831
 580.6	28881
 581.1	28993
 581.7	29035
 582.2	29014
 582.7	29081
 583.3	29143
 583.8	29141
 584.3	29117
 584.9	29197
 585.4	29219
 586.0	29222
 586.5	29276
 587.0	29262
 587.6	29360
 588.1	29322
 588.6	29399
 589.2	29356
 589.7	29389
 590.2	29390
 590.8	29379
 591.3	29405
 591.9	29343
 592.4	29394
 592.9	29309
 593.5	29289
 594.0	29265
 594.5	29258
 595.1	29211
 595.6	29162
 596.1	29186
 596.7	29130
 597.2	29144
 597.7	29057
 598.3	29055
 598.8	29005
 599.3	28987
 599.9	28924
 600.4	28898
 601.0	28892
 601.5	28867
 602.0	28840
 602.6	28789
 603.1	28799
 603.6	28803
 604.2	28899
 604.7	28816
 605.2	28893
 605.8	28811
 606.3	28852
 606.8	28938
 607.4	28943
 607.9	29009
 608.4	28970
 609.0	29034
 609.5	29103
 610.0	29102
 610.6	29223
 611.1	29171
 611.6	29256
 612.2	29281
 612.7	29363
 613.2	29404
 613.8	29375
 614.3	29451
 614.8	29530
 615.4	29526
 615.9	29661
 616.4	29769
 617.0	29758
 617.5	29889
 618.0	29971
 618.6	29972
 619.1	30063
 619.6	30197
 620.2	30270
 620.7	30397
 621.2	30426
 621.8	30515
 622.3	30600
 622.8	30633
 623.4	30705
 623.9	30803
 624.4	30819
 625.0	30849
 625.5	30856
 626.0	30881
 626.6	30948
 627.1	30929
 627.6	30889
 628.2	30853
 628.7	30896
 629.2	30869
 629.8	30876
 630.3	30865
 630.8	30826
 631.4	30777
 631.9	30763
 632.4	30619
 632.9	30593
 633.5	30550
 634.0	30474
 634.5	30489
 635.1	30393
 635.6	30349
 636.1	30276
 636.7	30268
 637.2	30229
 637.7	30092
 638.3	30151
 638.8	30100
 639.3	30099
 639.8	29999
 640.4	29989
 640.9	29993
 641.4	29888
 642.0	29845
 642.5	29840
 643.0	29804
 643.6	29883
 644.1	29829
 644.6	29831
 645.1	29845
 645.7	29849
 646.2	29805
 646.7	29826
 647.3	29851
 647.8	29879
 648.3	29858
 648.9	29911
 649.4	29835
 649.9	29923
 650.4	29957
 651.0	30023
 651.5	30059
 652.0	30136
 652.6	30114
 653.1	30224
 653.6	30161
 654.1	30249
 654.7	30249
 655.2	30363
 655.7	30418
 656.3	30450
 656.8	30439
 657.3	30519
 657.8	30503
 658.4	30533
 658.9	30581
 659.4	30662
 659.9	30693
 660.5	30677
 661.0	30743
 661.5	30803
 662.1	30779
 662.6	30803
 663.1	30774
 663.6	30871
 664.2	30823
 664.7	30803
 665.2	30744
 665.7	30852
 666.3	30819
 666.8	30812
 667.3	30808
 667.8	30775
 668.4	30793
 668.9	30795
 669.4	30763
 669.9	30777
 670.5	30695
 671.0	30703
 671.5	30658
 672.0	30683
 672.6	30667
 673.1	30694
 673.6	30595
 674.1	30604
 674.7	30581
 675.2	30610
 675.7	30477
 676.2	30450
 676.8	30501
 677.3	30491
 677.8	30407
 678.3	30491
 678.9	30420
 679.4	30353
 679.9	30393
 680.4	30378
 681.0	30327
 681.5	30353
 682.0	30297
 682.5	30322
 683.1	30221
 683.6	30247
 684.1	30183
 684.6	30281
 685.1	30219
 685.7	30225
 686.2	30201
 686.7	30155
 687.2	30143
 687.8	30206
 688.3	30152
 688.8	30170
 689.3	30103
 689.8	30141
 690.4	30125
 690.9	30138
 691.4	30156
 691.9	30163
 692.4	30141
 693.0	30213
 693.5	30173
 694.0	30167
 694.5	30163
 695.1	30139
 695.6	30103
 696.1	30179
 696.6	30163
 697.1	30189
 697.7	30207
 698.2	30143
 698.7	30169
 699.2	30132
 699.7	30139
 700.3	30090
 700.8	30067
 701.3	30149
 701.8	30115
 702.3	30047
 702.8	30037
 703.4	30023
 703.9	30003
 704.4	29971
 704.9	29919
 705.4	29911
 706.0	29970
 706.5	29937
 707.0	29841
 707.5	29810
 708.0	29818
 708.5	29749
 709.1	29787
 709.6	29731
 710.1	29662
 710.6	29627
 711.1	29587
 711.7	29575
 712.2	29535
 712.7	29527
 713.2	29463
 713.7	29430
 714.2	29353
 714.8	29408
 715.3	29314
 715.8	29278
 716.3	29253
 716.8	29145
 717.3	29105
 717.8	29187
 718.4	29179
 718.9	29099
 719.4	29169
 719.9	29067
 720.4	29107
 720.9	29127
 721.4	29120
 722.0	29155
 722.5	29153
 723.0	29162
 723.5	29194
 724.0	29171
 724.5	29169
 725.0	29229
 725.6	29179
 726.1	29252
 726.6	29378
 727.1	29330
 727.6	29389
 728.1	29427
 728.6	29403
 729.1	29414
 729.7	29409
 730.2	29443
 730.7	29480
 731.2	29533
 731.7	29525
 732.2	29557
 732.7	29539
 733.2	29580
 733.8	29555
 734.3	29596
 734.8	29593
 735.3	29631
 735.8	29643
 736.3	29638
 736.8	29693
 737.3	29760
 737.8	29721
 738.4	29719
 738.9	29685
 739.4	29789
 739.9	29780
 740.4	29809
 740.9	29791
 741.4	29793
 741.9	29797
 742.4	29816
 742.9	29803
 743.4	29873
 744.0	29786
 744.5	29774
 745.0	29779
 745.5	29849
 746.0	29813
 746.5	29819
 747.0	29751
 747.5	29725
 748.0	29694
 748.5	29713
 749.0	29704
 749.5	29773
 750.0	29604
 750.5	29637
 751.1	29617
 751.6	29607
 752.1	29571
 752.6	29521
 753.1	29543
 753.6	29458
 754.1	29413
 754.6	29434
 755.1	29359
 755.6	29346
 756.1	29238
 756.6	29313
 757.1	29258
 757.6	29223
 758.1	29151
 758.6	29129
 759.1	29033
 759.6	29047
 760.1	28970
 760.7	28890
 761.2	28949
 761.7	28881
 762.2	28837
 762.7	28847
 763.2	28705
 763.7	28750
 764.2	28651
 764.7	28622
 765.2	28615
 765.7	28550
 766.2	28486
 766.7	28491
 767.2	28406
 767.7	28382
 768.2	28327
 768.7	28266
 769.2	28215
 769.7	28232
 770.2	28185
 770.7	28162
 771.2	28104
 771.7	28067
 772.2	28060
 772.7	28078
 773.2	28037
 773.7	27970
 774.2	27907
 774.7	27930
 775.2	27886
 775.7	27862
 776.2	27831
 776.7	27848
 777.2	27759
 777.7	27819
 778.2	27782
 778.7	27818
 779.2	27798
 779.7	27820
 780.2	27657
 780.7	27714
 781.2	27695
 781.7	27747
 782.2	27675
 782.6	27740
 783.1	27734
 783.6	27681
 784.1	27639
 784.6	27621
 785.1	27624
 785.6	27617
 786.1	27628
 786.6	27640
 787.1	27577
 787.6	27568
 788.1	27547
 788.6	27528
 789.1	27503
 789.6	27516
 790.1	27522
 790.6	27497
 791.1	27396
 791.6	27383
 792.0	27369
 792.5	27387
 793.0	27348
 793.5	27322
 794.0	27243
 794.5	27309
 795.0	27247
 795.5	27214
 796.0	27191
 796.5	27111
 797.0	27105
 797.5	27119
 798.0	26938
 798.4	26938
 798.9	26896
 799.4	26883
 799.9	26847
 800.4	26686
 800.9	26745
 801.4	26760
 801.9	26679
 802.4	26564
 802.9	26589
 803.3	26539
 803.8	26468
 804.3	26381
 804.8	26399
 805.3	26319
 805.8	26256
 806.3	26210
 806.8	26153
 807.2	26110
 807.7	26045
 808.2	26024
 808.7	25909
 809.2	25879
 809.7	25774
 810.2	25807
 810.7	25703
 811.1	25674
 811.6	25641
 812.1	25555
 812.6	25482
 813.1	25496
 813.6	25479
 814.1	25437
 814.5	25358
 815.0	25352
 815.5	25271
 816.0	25202
 816.5	25235
 817.0	25156
 817.4	25113
 817.9	25114
 818.4	25013
 818.9	25079
 819.4	25015
 819.9	24961
 820.3	24910
 820.8	24890
 821.3	24869
 821.8	24853
 822.3	24766
 822.7	24728
 823.2	24778
 823.7	24709
 824.2	24691
 824.7	24652
 825.2	24643
 825.6	24605
 826.1	24577
 826.6	24612
 827.1	24580
 827.6	24555
 828.0	24485
 828.5	24451
 829.0	24467
 829.5	24395
 829.9	24389
 830.4	24439
 830.9	24394
 831.4	24415
 831.9	24349
 832.3	24414
 832.8	24343
 833.3	24330
 833.8	24393
 834.2	24377
 834.7	24211
 835.2	24301
 835.7	24283
 836.1	24278
 836.6	24241
 837.1	24239
 837.6	24230
 838.0	24252
 838.5	24271
 839.0	24263
 839.5	24248
 839.9	24155
 840.4	24162
 840.9	24115
 841.4	24138
 841.8	24162
 842.3	24158
 842.8	24163
 843.3	24151
 843.7	24041
 844.2	24021
 844.7	24090
 845.1	24055
 845.6	23970
 846.1	23975
 846.6	24000
 847.0	23890
 847.5	23931
 848.0	23899
 848.4	23926
 848.9	23870
 849.4	23839
 849.8	23845
 850.3	23831
 850.8	23866
 851.3	23806
 851.7	23787
 852.2	23781
 852.7	23759
 853.1	23723
 853.6	23655
 854.1	23683
 854.5	23630
 855.0	23600
 855.5	23576
 855.9	23622
 856.4	23587
 856.9	23489
 857.3	23525
 857.8	23471
 858.3	23480
 858.7	23419
 859.2	23420
 859.7	23413
 860.1	23453
 860.6	23413
 861.1	23327
 861.5	23351
 862.0	23330
 862.4	23281
 862.9	23217
 863.4	23235
 863.8	23220
 864.3	23190
 864.8	23093
 865.2	23114
 865.7	23113
 866.1	23110
 866.6	23013
 867.1	23074
 867.5	23045
 868.0	23007
 868.5	22943
 868.9	22924
 869.4	23010
 869.8	22959
 870.3	22901
 870.8	22963
 871.2	22901
 871.7	22890
 872.1	22821
 872.6	22857
 873.0	22813
 873.5	22871
 874.0	22833
 874.4	22693
 874.9	22704
 875.3	22634
 875.8	22513
 876.2	22293
 876.7	22121
 877.2	21783
 877.6	21360
 878.1	20956
