#xlabel Wavelength (nm)
#ylabel Spectrometer Array Counts
#title Exposure time is 11000 ms
## lambda	counts
 349.8	18183
 350.3	18458
 350.8	18715
 351.3	18913
 351.9	19025
 352.4	19141
 352.9	19211
 353.4	19170
 354.0	19169
 354.5	19207
 355.0	19210
 355.5	19223
 356.0	19182
 356.6	19144
 357.1	19197
 357.6	19167
 358.1	19199
 358.7	19131
 359.2	19143
 359.7	19162
 360.2	19201
 360.8	19162
 361.3	19251
 361.8	19193
 362.3	19220
 362.9	19169
 363.4	19245
 363.9	19243
 364.4	19273
 364.9	19174
 365.5	19243
 366.0	19223
 366.5	19168
 367.0	19220
 367.6	19242
 368.1	19239
 368.6	19163
 369.1	19221
 369.7	19265
 370.2	19183
 370.7	19181
 371.2	19219
 371.8	19273
 372.3	19185
 372.8	19269
 373.3	19273
 373.9	19209
 374.4	19221
 374.9	19267
 375.5	19149
 376.0	19273
 376.5	19231
 377.0	19252
 377.6	19190
 378.1	19270
 378.6	19192
 379.1	19189
 379.7	19157
 380.2	19235
 380.7	19226
 381.2	19179
 381.8	19168
 382.3	19200
 382.8	19178
 383.4	19222
 383.9	19165
 384.4	19318
 384.9	19217
 385.5	19238
 386.0	19228
 386.5	19299
 387.1	19227
 387.6	19245
 388.1	19241
 388.6	19253
 389.2	19230
 389.7	19250
 390.2	19219
 390.8	19301
 391.3	19257
 391.8	19249
 392.3	19229
 392.9	19213
 393.4	19192
 393.9	19260
 394.5	19253
 395.0	19188
 395.5	19203
 396.0	19195
 396.6	19156
 397.1	19247
 397.6	19233
 398.2	19239
 398.7	19228
 399.2	19319
 399.8	19184
 400.3	19247
 400.8	19295
 401.3	19256
 401.9	19267
 402.4	19279
 402.9	19262
 403.5	19282
 404.0	19263
 404.5	19207
 405.1	19203
 405.6	19292
 406.1	19255
 406.7	19253
 407.2	19247
 407.7	19324
 408.2	19306
 408.8	19297
 409.3	19317
 409.8	19354
 410.4	19306
 410.9	19303
 411.4	19232
 412.0	19292
 412.5	19337
 413.0	19279
 413.6	19316
 414.1	19269
 414.6	19295
 415.2	19332
 415.7	19258
 416.2	19293
 416.8	19278
 417.3	19249
 417.8	19262
 418.4	19341
 418.9	19269
 419.4	19399
 420.0	19274
 420.5	19332
 421.0	19267
 421.5	19346
 422.1	19320
 422.6	19367
 423.1	19386
 423.7	19344
 424.2	19319
 424.7	19353
 425.3	19326
 425.8	19336
 426.3	19312
 426.9	19369
 427.4	19307
 427.9	19411
 428.5	19344
 429.0	19367
 429.6	19315
 430.1	19392
 430.6	19369
 431.2	19295
 431.7	19385
 432.2	19334
 432.8	19295
 433.3	19392
 433.8	19384
 434.4	19337
 434.9	19339
 435.4	19373
 436.0	19339
 436.5	19322
 437.0	19387
 437.6	19356
 438.1	19407
 438.6	19397
 439.2	19422
 439.7	19404
 440.2	19343
 440.8	19371
 441.3	19375
 441.8	19377
 442.4	19336
 442.9	19365
 443.5	19399
 444.0	19388
 444.5	19415
 445.1	19325
 445.6	19348
 446.1	19367
 446.7	19378
 447.2	19385
 447.7	19359
 448.3	19422
 448.8	19365
 449.3	19398
 449.9	19320
 450.4	19401
 450.9	19428
 451.5	19411
 452.0	19365
 452.6	19367
 453.1	19407
 453.6	19405
 454.2	19273
 454.7	19338
 455.2	19344
 455.8	19381
 456.3	19303
 456.8	19425
 457.4	19334
 457.9	19346
 458.5	19388
 459.0	19339
 459.5	19375
 460.1	19319
 460.6	19375
 461.1	19354
 461.7	19402
 462.2	19348
 462.7	19390
 463.3	19303
 463.8	19387
 464.4	19450
 464.9	19385
 465.4	19447
 466.0	19342
 466.5	19405
 467.0	19324
 467.6	19389
 468.1	19464
 468.7	19387
 469.2	19307
 469.7	19389
 470.3	19359
 470.8	19381
 471.3	19349
 471.9	19297
 472.4	19341
 473.0	19377
 473.5	19381
 474.0	19362
 474.6	19357
 475.1	19335
 475.6	19401
 476.2	19401
 476.7	19373
 477.3	19421
 477.8	19356
 478.3	19273
 478.9	19472
 479.4	19348
 479.9	19347
 480.5	19323
 481.0	19339
 481.6	19353
 482.1	19405
 482.6	19383
 483.2	19373
 483.7	19486
 484.2	19397
 484.8	19223
 485.3	19315
 485.9	19388
 486.4	19337
 486.9	19343
 487.5	19300
 488.0	19290
 488.6	19345
 489.1	19348
 489.6	19395
 490.2	19388
 490.7	19329
 491.2	19301
 491.8	19355
 492.3	19297
 492.9	19349
 493.4	19353
 493.9	19369
 494.5	19373
 495.0	19438
 495.6	19351
 496.1	19366
 496.6	19425
 497.2	19340
 497.7	19301
 498.2	19402
 498.8	19426
 499.3	19330
 499.9	19390
 500.4	19375
 500.9	19362
 501.5	19338
 502.0	19400
 502.6	19371
 503.1	19449
 503.6	19403
 504.2	19339
 504.7	19329
 505.2	19387
 505.8	19361
 506.3	19421
 506.9	19413
 507.4	19357
 507.9	19316
 508.5	19332
 509.0	19351
 509.6	19399
 510.1	19348
 510.6	19380
 511.2	19384
 511.7	19346
 512.2	19401
 512.8	19409
 513.3	19358
 513.9	19341
 514.4	19387
 514.9	19455
 515.5	19353
 516.0	19427
 516.6	19394
 517.1	19446
 517.6	19425
 518.2	19411
 518.7	19344
 519.3	19407
 519.8	19467
 520.3	19464
 520.9	19422
 521.4	19437
 521.9	19498
 522.5	19423
 523.0	19459
 523.6	19496
 524.1	19341
 524.6	19400
 525.2	19433
 525.7	19461
 526.3	19372
 526.8	19460
 527.3	19401
 527.9	19417
 528.4	19396
 528.9	19441
 529.5	19453
 530.0	19420
 530.6	19462
 531.1	19455
 531.6	19353
 532.2	19461
 532.7	19399
 533.3	19420
 533.8	19529
 534.3	19544
 534.9	19522
 535.4	19443
 536.0	19507
 536.5	19538
 537.0	19480
 537.6	19481
 538.1	19527
 538.6	19535
 539.2	19460
 539.7	19462
 540.3	19556
 540.8	19511
 541.3	19455
 541.9	19480
 542.4	19479
 543.0	19543
 543.5	19499
 544.0	19474
 544.6	19524
 545.1	19528
 545.6	19569
 546.2	19547
 546.7	19451
 547.3	19524
 547.8	19495
 548.3	19547
 548.9	19469
 549.4	19470
 550.0	19441
 550.5	19507
 551.0	19558
 551.6	19499
 552.1	19523
 552.6	19525
 553.2	19501
 553.7	19475
 554.3	19516
 554.8	19582
 555.3	19432
 555.9	19500
 556.4	19458
 556.9	19544
 557.5	19571
 558.0	19515
 558.6	19486
 559.1	19559
 559.6	19528
 560.2	19523
 560.7	19517
 561.3	19483
 561.8	19453
 562.3	19563
 562.9	19535
 563.4	19563
 563.9	19554
 564.5	19547
 565.0	19523
 565.6	19545
 566.1	19537
 566.6	19541
 567.2	19523
 567.7	19629
 568.2	19523
 568.8	19540
 569.3	19505
 569.9	19581
 570.4	19567
 570.9	19528
 571.5	19524
 572.0	19508
 572.5	19564
 573.1	19500
 573.6	19555
 574.1	19536
 574.7	19531
 575.2	19496
 575.8	19526
 576.3	19594
 576.8	19547
 577.4	19552
 577.9	19554
 578.4	19506
 579.0	19513
 579.5	19603
 580.1	19517
 580.6	19510
 581.1	19584
 581.7	19591
 582.2	19512
 582.7	19553
 583.3	19591
 583.8	19548
 584.3	19487
 584.9	19542
 585.4	19538
 586.0	19502
 586.5	19534
 587.0	19485
 587.6	19561
 588.1	19498
 588.6	19575
 589.2	19506
 589.7	19523
 590.2	19509
 590.8	19509
 591.3	19531
 591.9	19475
 592.4	19543
 592.9	19481
 593.5	19479
 594.0	19481
 594.5	19496
 595.1	19490
 595.6	19473
 596.1	19538
 596.7	19507
 597.2	19553
 597.7	19500
 598.3	19512
 598.8	19487
 599.3	19513
 599.9	19487
 600.4	19490
 601.0	19503
 601.5	19491
 602.0	19490
 602.6	19436
 603.1	19457
 603.6	19449
 604.2	19555
 604.7	19453
 605.2	19519
 605.8	19431
 606.3	19453
 606.8	19519
 607.4	19487
 607.9	19519
 608.4	19452
 609.0	19477
 609.5	19522
 610.0	19489
 610.6	19577
 611.1	19467
 611.6	19489
 612.2	19483
 612.7	19535
 613.2	19515
 613.8	19424
 614.3	19447
 614.8	19494
 615.4	19403
 615.9	19475
 616.4	19516
 617.0	19450
 617.5	19529
 618.0	19532
 618.6	19430
 619.1	19445
 619.6	19516
 620.2	19481
 620.7	19519
 621.2	19467
 621.8	19495
 622.3	19501
 622.8	19439
 623.4	19455
 623.9	19515
 624.4	19476
 625.0	19468
 625.5	19466
 626.0	19473
 626.6	19518
 627.1	19511
 627.6	19464
 628.2	19423
 628.7	19459
 629.2	19443
 629.8	19483
 630.3	19500
 630.8	19491
 631.4	19483
 631.9	19512
 632.4	19415
 632.9	19448
 633.5	19461
 634.0	19425
 634.5	19535
 635.1	19467
 635.6	19451
 636.1	19442
 636.7	19523
 637.2	19520
 637.7	19439
 638.3	19544
 638.8	19551
 639.3	19565
 639.8	19527
 640.4	19553
 640.9	19583
 641.4	19489
 642.0	19491
 642.5	19512
 643.0	19489
 643.6	19579
 644.1	19536
 644.6	19543
 645.1	19586
 645.7	19559
 646.2	19524
 646.7	19541
 647.3	19569
 647.8	19569
 648.3	19539
 648.9	19567
 649.4	19485
 649.9	19550
 650.4	19549
 651.0	19581
 651.5	19586
 652.0	19636
 652.6	19561
 653.1	19641
 653.6	19531
 654.1	19611
 654.7	19550
 655.2	19621
 655.7	19651
 656.3	19658
 656.8	19585
 657.3	19637
 657.8	19577
 658.4	19559
 658.9	19555
 659.4	19637
 659.9	19620
 660.5	19593
 661.0	19635
 661.5	19671
 662.1	19623
 662.6	19630
 663.1	19589
 663.6	19673
 664.2	19628
 664.7	19593
 665.2	19511
 665.7	19638
 666.3	19609
 666.8	19612
 667.3	19625
 667.8	19583
 668.4	19620
 668.9	19626
 669.4	19611
 669.9	19653
 670.5	19586
 671.0	19610
 671.5	19565
 672.0	19637
 672.6	19650
 673.1	19674
 673.6	19593
 674.1	19634
 674.7	19626
 675.2	19685
 675.7	19539
 676.2	19559
 676.8	19610
 677.3	19643
 677.8	19566
 678.3	19687
 678.9	19625
 679.4	19583
 679.9	19642
 680.4	19660
 681.0	19619
 681.5	19667
 682.0	19642
 682.5	19665
 683.1	19587
 683.6	19648
 684.1	19587
 684.6	19695
 685.1	19630
 685.7	19662
 686.2	19631
 686.7	19598
 687.2	19593
 687.8	19666
 688.3	19599
 688.8	19638
 689.3	19571
 689.8	19609
 690.4	19604
 690.9	19614
 691.4	19598
 691.9	19645
 692.4	19590
 693.0	19662
 693.5	19632
 694.0	19615
 694.5	19612
 695.1	19586
 695.6	19557
 696.1	19623
 696.6	19615
 697.1	19625
 697.7	19653
 698.2	19595
 698.7	19611
 699.2	19579
 699.7	19581
 700.3	19562
 700.8	19540
 701.3	19664
 701.8	19628
 702.3	19567
 702.8	19585
 703.4	19549
 703.9	19575
 704.4	19581
 704.9	19540
 705.4	19559
 706.0	19667
 706.5	19663
 707.0	19574
 707.5	19569
 708.0	19609
 708.5	19570
 709.1	19639
 709.6	19607
 710.1	19589
 710.6	19567
 711.1	19580
 711.7	19612
 712.2	19621
 712.7	19627
 713.2	19620
 713.7	19622
 714.2	19590
 714.8	19676
 715.3	19620
 715.8	19628
 716.3	19641
 716.8	19551
 717.3	19537
 717.8	19655
 718.4	19665
 718.9	19606
 719.4	19679
 719.9	19597
 720.4	19640
 720.9	19647
 721.4	19642
 722.0	19659
 722.5	19640
 723.0	19630
 723.5	19639
 724.0	19599
 724.5	19591
 725.0	19603
 725.6	19535
 726.1	19582
 726.6	19701
 727.1	19632
 727.6	19679
 728.1	19690
 728.6	19647
 729.1	19633
 729.7	19619
 730.2	19644
 730.7	19685
 731.2	19709
 731.7	19701
 732.2	19703
 732.7	19683
 733.2	19731
 733.8	19704
 734.3	19720
 734.8	19683
 735.3	19705
 735.8	19684
 736.3	19648
 736.8	19680
 737.3	19711
 737.8	19659
 738.4	19655
 738.9	19594
 739.4	19688
 739.9	19673
 740.4	19672
 740.9	19666
 741.4	19659
 741.9	19651
 742.4	19674
 742.9	19657
 743.4	19755
 744.0	19667
 744.5	19670
 745.0	19687
 745.5	19771
 746.0	19747
 746.5	19754
 747.0	19706
 747.5	19693
 748.0	19662
 748.5	19685
 749.0	19713
 749.5	19803
 750.0	19641
 750.5	19717
 751.1	19735
 751.6	19743
 752.1	19742
 752.6	19709
 753.1	19746
 753.6	19682
 754.1	19655
 754.6	19720
 755.1	19687
 755.6	19699
 756.1	19623
 756.6	19743
 757.1	19716
 757.6	19706
 758.1	19685
 758.6	19711
 759.1	19647
 759.6	19691
 760.1	19651
 760.7	19630
 761.2	19714
 761.7	19667
 762.2	19665
 762.7	19726
 763.2	19585
 763.7	19690
 764.2	19631
 764.7	19640
 765.2	19690
 765.7	19673
 766.2	19637
 766.7	19698
 767.2	19665
 767.7	19685
 768.2	19670
 768.7	19646
 769.2	19654
 769.7	19712
 770.2	19682
 770.7	19690
 771.2	19682
 771.7	19663
 772.2	19688
 772.7	19737
 773.2	19725
 773.7	19682
 774.2	19635
 774.7	19691
 775.2	19691
 775.7	19673
 776.2	19671
 776.7	19702
 777.2	19627
 777.7	19715
 778.2	19704
 778.7	19746
 779.2	19760
 779.7	19799
 780.2	19637
 780.7	19714
 781.2	19724
 781.7	19806
 782.2	19723
 782.6	19803
 783.1	19812
 783.6	19775
 784.1	19753
 784.6	19736
 785.1	19753
 785.6	19745
 786.1	19787
 786.6	19807
 787.1	19749
 787.6	19761
 788.1	19758
 788.6	19747
 789.1	19747
 789.6	19795
 790.1	19815
 790.6	19814
 791.1	19728
 791.6	19735
 792.0	19764
 792.5	19810
 793.0	19800
 793.5	19802
 794.0	19743
 794.5	19837
 795.0	19842
 795.5	19815
 796.0	19834
 796.5	19787
 797.0	19824
 797.5	19877
 798.0	19741
 798.4	19795
 798.9	19787
 799.4	19819
 799.9	19835
 800.4	19710
 800.9	19821
 801.4	19905
 801.9	19877
 802.4	19813
 802.9	19893
 803.3	19898
 803.8	19877
 804.3	19836
 804.8	19911
 805.3	19875
 805.8	19878
 806.3	19888
 806.8	19881
 807.2	19892
 807.7	19867
 808.2	19913
 808.7	19835
 809.2	19867
 809.7	19807
 810.2	19885
 810.7	19830
 811.1	19859
 811.6	19871
 812.1	19837
 812.6	19806
 813.1	19864
 813.6	19893
 814.1	19879
 814.5	19846
 815.0	19877
 815.5	19853
 816.0	19813
 816.5	19896
 817.0	19845
 817.4	19835
 817.9	19881
 818.4	19821
 818.9	19921
 819.4	19878
 819.9	19860
 820.3	19839
 820.8	19847
 821.3	19859
 821.8	19889
 822.3	19825
 822.7	19819
 823.2	19884
 823.7	19839
 824.2	19850
 824.7	19834
 825.2	19860
 825.6	19843
 826.1	19837
 826.6	19901
 827.1	19887
 827.6	19885
 828.0	19828
 828.5	19810
 829.0	19853
 829.5	19800
 829.9	19806
 830.4	19877
 830.9	19858
 831.4	19895
 831.9	19851
 832.3	19932
 832.8	19880
 833.3	19878
 833.8	19973
 834.2	19957
 834.7	19806
 835.2	19913
 835.7	19911
 836.1	19911
 836.6	19891
 837.1	19907
 837.6	19911
 838.0	19953
 838.5	19986
 839.0	19987
 839.5	19979
 839.9	19902
 840.4	19915
 840.9	19879
 841.4	19925
 841.8	19953
 842.3	19970
 842.8	19995
 843.3	19999
 843.7	19893
 844.2	19885
 844.7	19983
 845.1	19952
 845.6	19877
 846.1	19901
 846.6	19935
 847.0	19837
 847.5	19898
 848.0	19885
 848.4	19928
 848.9	19894
 849.4	19886
 849.8	19919
 850.3	19914
 850.8	19965
 851.3	19931
 851.7	19933
 852.2	19943
 852.7	19935
 853.1	19912
 853.6	19876
 854.1	19916
 854.5	19893
 855.0	19883
 855.5	19887
 855.9	19950
 856.4	19943
 856.9	19860
 857.3	19927
 857.8	19907
 858.3	19959
 858.7	19917
 859.2	19932
 859.7	19927
 860.1	19989
 860.6	19965
 861.1	19915
 861.5	19971
 862.0	19987
 862.4	19959
 862.9	19923
 863.4	19966
 863.8	19974
 864.3	19980
 864.8	19901
 865.2	19955
 865.7	19988
 866.1	20006
 866.6	19924
 867.1	20011
 867.5	19996
 868.0	19979
 868.5	19938
 868.9	19946
 869.4	20057
 869.8	20012
 870.3	19968
 870.8	20046
 871.2	19997
 871.7	19991
 872.1	19943
 872.6	20001
 873.0	19980
 873.5	20076
 874.0	20074
 874.4	19980
 874.9	20036
 875.3	20016
 875.8	19938
 876.2	19746
 876.7	19605
 877.2	19283
 877.6	18869
 878.1	18478
