#xlabel Wavelength (nm)
#ylabel Spectrometer Array Counts
#title Exposure time is 11000 ms
## lambda	counts
 349.8	18119
 350.3	18376
 350.8	18622
 351.3	18819
 351.9	18932
 352.4	19056
 352.9	19141
 353.4	19115
 354.0	19122
 354.5	19171
 355.0	19179
 355.5	19193
 356.0	19149
 356.6	19114
 357.1	19167
 357.6	19138
 358.1	19161
 358.7	19093
 359.2	19106
 359.7	19123
 360.2	19163
 360.8	19123
 361.3	19218
 361.8	19153
 362.3	19187
 362.9	19137
 363.4	19213
 363.9	19214
 364.4	19239
 364.9	19139
 365.5	19212
 366.0	19195
 366.5	19143
 367.0	19185
 367.6	19208
 368.1	19207
 368.6	19133
 369.1	19189
 369.7	19237
 370.2	19155
 370.7	19153
 371.2	19192
 371.8	19240
 372.3	19157
 372.8	19227
 373.3	19240
 373.9	19178
 374.4	19188
 374.9	19233
 375.5	19117
 376.0	19241
 376.5	19197
 377.0	19217
 377.6	19159
 378.1	19233
 378.6	19161
 379.1	19155
 379.7	19132
 380.2	19201
 380.7	19202
 381.2	19148
 381.8	19133
 382.3	19172
 382.8	19145
 383.4	19189
 383.9	19135
 384.4	19287
 384.9	19189
 385.5	19201
 386.0	19198
 386.5	19273
 387.1	19192
 387.6	19214
 388.1	19210
 388.6	19219
 389.2	19201
 389.7	19217
 390.2	19185
 390.8	19269
 391.3	19225
 391.8	19219
 392.3	19197
 392.9	19184
 393.4	19161
 393.9	19222
 394.5	19219
 395.0	19158
 395.5	19171
 396.0	19166
 396.6	19123
 397.1	19215
 397.6	19206
 398.2	19206
 398.7	19200
 399.2	19292
 399.8	19149
 400.3	19218
 400.8	19259
 401.3	19224
 401.9	19239
 402.4	19249
 402.9	19230
 403.5	19252
 404.0	19231
 404.5	19181
 405.1	19173
 405.6	19261
 406.1	19223
 406.7	19225
 407.2	19217
 407.7	19294
 408.2	19277
 408.8	19266
 409.3	19289
 409.8	19324
 410.4	19276
 410.9	19273
 411.4	19207
 412.0	19258
 412.5	19311
 413.0	19250
 413.6	19280
 414.1	19235
 414.6	19268
 415.2	19298
 415.7	19227
 416.2	19270
 416.8	19249
 417.3	19222
 417.8	19237
 418.4	19317
 418.9	19242
 419.4	19369
 420.0	19247
 420.5	19305
 421.0	19241
 421.5	19315
 422.1	19291
 422.6	19339
 423.1	19357
 423.7	19315
 424.2	19297
 424.7	19326
 425.3	19300
 425.8	19317
 426.3	19292
 426.9	19346
 427.4	19279
 427.9	19383
 428.5	19318
 429.0	19347
 429.6	19291
 430.1	19365
 430.6	19347
 431.2	19275
 431.7	19358
 432.2	19310
 432.8	19271
 433.3	19367
 433.8	19357
 434.4	19315
 434.9	19317
 435.4	19351
 436.0	19318
 436.5	19307
 437.0	19367
 437.6	19333
 438.1	19379
 438.6	19381
 439.2	19402
 439.7	19384
 440.2	19322
 440.8	19353
 441.3	19352
 441.8	19357
 442.4	19318
 442.9	19352
 443.5	19385
 444.0	19374
 444.5	19401
 445.1	19305
 445.6	19336
 446.1	19355
 446.7	19363
 447.2	19373
 447.7	19343
 448.3	19407
 448.8	19354
 449.3	19381
 449.9	19311
 450.4	19395
 450.9	19420
 451.5	19399
 452.0	19350
 452.6	19354
 453.1	19398
 453.6	19389
 454.2	19266
 454.7	19331
 455.2	19334
 455.8	19367
 456.3	19299
 456.8	19421
 457.4	19330
 457.9	19339
 458.5	19379
 459.0	19341
 459.5	19366
 460.1	19316
 460.6	19364
 461.1	19347
 461.7	19395
 462.2	19344
 462.7	19387
 463.3	19309
 463.8	19383
 464.4	19450
 464.9	19384
 465.4	19446
 466.0	19339
 466.5	19405
 467.0	19327
 467.6	19389
 468.1	19471
 468.7	19389
 469.2	19311
 469.7	19389
 470.3	19359
 470.8	19391
 471.3	19348
 471.9	19299
 472.4	19343
 473.0	19375
 473.5	19382
 474.0	19366
 474.6	19365
 475.1	19341
 475.6	19405
 476.2	19408
 476.7	19381
 477.3	19431
 477.8	19363
 478.3	19278
 478.9	19481
 479.4	19359
 479.9	19359
 480.5	19339
 481.0	19351
 481.6	19366
 482.1	19418
 482.6	19389
 483.2	19383
 483.7	19498
 484.2	19414
 484.8	19241
 485.3	19333
 485.9	19405
 486.4	19355
 486.9	19365
 487.5	19319
 488.0	19312
 488.6	19364
 489.1	19366
 489.6	19420
 490.2	19409
 490.7	19357
 491.2	19320
 491.8	19374
 492.3	19321
 492.9	19369
 493.4	19373
 493.9	19392
 494.5	19391
 495.0	19460
 495.6	19373
 496.1	19386
 496.6	19449
 497.2	19362
 497.7	19328
 498.2	19427
 498.8	19445
 499.3	19357
 499.9	19412
 500.4	19403
 500.9	19386
 501.5	19367
 502.0	19425
 502.6	19396
 503.1	19476
 503.6	19429
 504.2	19367
 504.7	19358
 505.2	19414
 505.8	19387
 506.3	19453
 506.9	19443
 507.4	19389
 507.9	19351
 508.5	19363
 509.0	19393
 509.6	19440
 510.1	19390
 510.6	19416
 511.2	19420
 511.7	19385
 512.2	19441
 512.8	19443
 513.3	19400
 513.9	19384
 514.4	19435
 514.9	19503
 515.5	19388
 516.0	19472
 516.6	19431
 517.1	19489
 517.6	19475
 518.2	19450
 518.7	19389
 519.3	19453
 519.8	19503
 520.3	19507
 520.9	19467
 521.4	19471
 521.9	19540
 522.5	19468
 523.0	19497
 523.6	19535
 524.1	19383
 524.6	19444
 525.2	19471
 525.7	19503
 526.3	19415
 526.8	19502
 527.3	19444
 527.9	19455
 528.4	19440
 528.9	19490
 529.5	19497
 530.0	19473
 530.6	19504
 531.1	19500
 531.6	19395
 532.2	19511
 532.7	19446
 533.3	19470
 533.8	19579
 534.3	19595
 534.9	19572
 535.4	19496
 536.0	19566
 536.5	19591
 537.0	19539
 537.6	19546
 538.1	19586
 538.6	19592
 539.2	19519
 539.7	19521
 540.3	19618
 540.8	19573
 541.3	19521
 541.9	19549
 542.4	19543
 543.0	19607
 543.5	19559
 544.0	19539
 544.6	19592
 545.1	19597
 545.6	19632
 546.2	19616
 546.7	19518
 547.3	19583
 547.8	19564
 548.3	19616
 548.9	19539
 549.4	19537
 550.0	19507
 550.5	19574
 551.0	19625
 551.6	19572
 552.1	19587
 552.6	19590
 553.2	19569
 553.7	19543
 554.3	19582
 554.8	19649
 555.3	19497
 555.9	19572
 556.4	19522
 556.9	19616
 557.5	19633
 558.0	19580
 558.6	19558
 559.1	19623
 559.6	19601
 560.2	19591
 560.7	19586
 561.3	19555
 561.8	19523
 562.3	19635
 562.9	19605
 563.4	19629
 563.9	19622
 564.5	19619
 565.0	19600
 565.6	19618
 566.1	19611
 566.6	19619
 567.2	19595
 567.7	19708
 568.2	19601
 568.8	19616
 569.3	19581
 569.9	19660
 570.4	19644
 570.9	19608
 571.5	19602
 572.0	19585
 572.5	19645
 573.1	19582
 573.6	19633
 574.1	19616
 574.7	19609
 575.2	19577
 575.8	19605
 576.3	19675
 576.8	19633
 577.4	19637
 577.9	19641
 578.4	19592
 579.0	19596
 579.5	19689
 580.1	19606
 580.6	19597
 581.1	19669
 581.7	19679
 582.2	19602
 582.7	19644
 583.3	19683
 583.8	19642
 584.3	19581
 584.9	19638
 585.4	19631
 586.0	19597
 586.5	19631
 587.0	19577
 587.6	19650
 588.1	19593
 588.6	19666
 589.2	19598
 589.7	19619
 590.2	19602
 590.8	19607
 591.3	19633
 591.9	19574
 592.4	19639
 592.9	19581
 593.5	19578
 594.0	19576
 594.5	19597
 595.1	19586
 595.6	19571
 596.1	19637
 596.7	19607
 597.2	19651
 597.7	19593
 598.3	19606
 598.8	19581
 599.3	19614
 599.9	19588
 600.4	19587
 601.0	19598
 601.5	19586
 602.0	19586
 602.6	19534
 603.1	19551
 603.6	19550
 604.2	19651
 604.7	19550
 605.2	19622
 605.8	19527
 606.3	19549
 606.8	19623
 607.4	19584
 607.9	19617
 608.4	19551
 609.0	19579
 609.5	19621
 610.0	19588
 610.6	19678
 611.1	19574
 611.6	19593
 612.2	19587
 612.7	19643
 613.2	19621
 613.8	19532
 614.3	19554
 614.8	19598
 615.4	19511
 615.9	19587
 616.4	19630
 617.0	19563
 617.5	19646
 618.0	19646
 618.6	19550
 619.1	19567
 619.6	19637
 620.2	19605
 620.7	19646
 621.2	19589
 621.8	19620
 622.3	19629
 622.8	19570
 623.4	19591
 623.9	19643
 624.4	19605
 625.0	19597
 625.5	19597
 626.0	19609
 626.6	19645
 627.1	19642
 627.6	19596
 628.2	19562
 628.7	19595
 629.2	19581
 629.8	19615
 630.3	19638
 630.8	19623
 631.4	19617
 631.9	19653
 632.4	19549
 632.9	19585
 633.5	19594
 634.0	19560
 634.5	19667
 635.1	19595
 635.6	19582
 636.1	19575
 636.7	19645
 637.2	19651
 637.7	19565
 638.3	19673
 638.8	19676
 639.3	19691
 639.8	19651
 640.4	19676
 640.9	19704
 641.4	19613
 642.0	19618
 642.5	19639
 643.0	19613
 643.6	19703
 644.1	19657
 644.6	19665
 645.1	19717
 645.7	19689
 646.2	19649
 646.7	19665
 647.3	19697
 647.8	19690
 648.3	19666
 648.9	19695
 649.4	19605
 649.9	19674
 650.4	19675
 651.0	19705
 651.5	19719
 652.0	19763
 652.6	19697
 653.1	19770
 653.6	19671
 654.1	19748
 654.7	19683
 655.2	19757
 655.7	19787
 656.3	19794
 656.8	19723
 657.3	19773
 657.8	19715
 658.4	19697
 658.9	19695
 659.4	19783
 659.9	19764
 660.5	19728
 661.0	19775
 661.5	19817
 662.1	19768
 662.6	19779
 663.1	19735
 663.6	19812
 664.2	19773
 664.7	19736
 665.2	19661
 665.7	19787
 666.3	19755
 666.8	19767
 667.3	19770
 667.8	19726
 668.4	19768
 668.9	19771
 669.4	19759
 669.9	19799
 670.5	19731
 671.0	19758
 671.5	19715
 672.0	19787
 672.6	19795
 673.1	19818
 673.6	19739
 674.1	19780
 674.7	19767
 675.2	19824
 675.7	19684
 676.2	19697
 676.8	19754
 677.3	19789
 677.8	19708
 678.3	19831
 678.9	19773
 679.4	19725
 679.9	19787
 680.4	19802
 681.0	19770
 681.5	19812
 682.0	19793
 682.5	19813
 683.1	19728
 683.6	19788
 684.1	19732
 684.6	19839
 685.1	19775
 685.7	19810
 686.2	19775
 686.7	19741
 687.2	19730
 687.8	19811
 688.3	19743
 688.8	19778
 689.3	19721
 689.8	19753
 690.4	19753
 690.9	19758
 691.4	19749
 691.9	19791
 692.4	19737
 693.0	19813
 693.5	19782
 694.0	19764
 694.5	19752
 695.1	19735
 695.6	19696
 696.1	19771
 696.6	19759
 697.1	19773
 697.7	19802
 698.2	19737
 698.7	19758
 699.2	19727
 699.7	19732
 700.3	19709
 700.8	19690
 701.3	19816
 701.8	19773
 702.3	19718
 702.8	19730
 703.4	19695
 703.9	19722
 704.4	19731
 704.9	19689
 705.4	19704
 706.0	19815
 706.5	19808
 707.0	19721
 707.5	19717
 708.0	19756
 708.5	19710
 709.1	19784
 709.6	19751
 710.1	19728
 710.6	19713
 711.1	19725
 711.7	19753
 712.2	19765
 712.7	19775
 713.2	19759
 713.7	19761
 714.2	19729
 714.8	19814
 715.3	19763
 715.8	19768
 716.3	19783
 716.8	19690
 717.3	19675
 717.8	19797
 718.4	19807
 718.9	19743
 719.4	19821
 719.9	19729
 720.4	19776
 720.9	19784
 721.4	19781
 722.0	19799
 722.5	19783
 723.0	19770
 723.5	19781
 724.0	19738
 724.5	19735
 725.0	19744
 725.6	19673
 726.1	19726
 726.6	19843
 727.1	19778
 727.6	19815
 728.1	19831
 728.6	19791
 729.1	19777
 729.7	19764
 730.2	19793
 730.7	19826
 731.2	19851
 731.7	19844
 732.2	19845
 732.7	19827
 733.2	19877
 733.8	19848
 734.3	19863
 734.8	19829
 735.3	19851
 735.8	19829
 736.3	19797
 736.8	19828
 737.3	19865
 737.8	19808
 738.4	19801
 738.9	19744
 739.4	19836
 739.9	19824
 740.4	19821
 740.9	19819
 741.4	19810
 741.9	19807
 742.4	19828
 742.9	19811
 743.4	19909
 744.0	19822
 744.5	19825
 745.0	19839
 745.5	19926
 746.0	19905
 746.5	19910
 747.0	19858
 747.5	19848
 748.0	19821
 748.5	19838
 749.0	19867
 749.5	19963
 750.0	19797
 750.5	19866
 751.1	19887
 751.6	19895
 752.1	19895
 752.6	19863
 753.1	19903
 753.6	19845
 754.1	19819
 754.6	19873
 755.1	19840
 755.6	19857
 756.1	19778
 756.6	19895
 757.1	19869
 757.6	19859
 758.1	19835
 758.6	19861
 759.1	19796
 759.6	19847
 760.1	19804
 760.7	19780
 761.2	19866
 761.7	19810
 762.2	19810
 762.7	19873
 763.2	19724
 763.7	19830
 764.2	19777
 764.7	19786
 765.2	19834
 765.7	19811
 766.2	19784
 766.7	19847
 767.2	19807
 767.7	19823
 768.2	19813
 768.7	19790
 769.2	19790
 769.7	19849
 770.2	19823
 770.7	19827
 771.2	19822
 771.7	19797
 772.2	19818
 772.7	19869
 773.2	19859
 773.7	19814
 774.2	19775
 774.7	19830
 775.2	19826
 775.7	19812
 776.2	19804
 776.7	19836
 777.2	19763
 777.7	19849
 778.2	19837
 778.7	19880
 779.2	19893
 779.7	19926
 780.2	19766
 780.7	19837
 781.2	19857
 781.7	19930
 782.2	19849
 782.6	19935
 783.1	19945
 783.6	19905
 784.1	19880
 784.6	19868
 785.1	19884
 785.6	19877
 786.1	19917
 786.6	19939
 787.1	19878
 787.6	19885
 788.1	19883
 788.6	19874
 789.1	19876
 789.6	19923
 790.1	19941
 790.6	19939
 791.1	19854
 791.6	19857
 792.0	19896
 792.5	19935
 793.0	19925
 793.5	19924
 794.0	19866
 794.5	19966
 795.0	19959
 795.5	19932
 796.0	19960
 796.5	19911
 797.0	19947
 797.5	19997
 798.0	19857
 798.4	19911
 798.9	19905
 799.4	19939
 799.9	19952
 800.4	19822
 800.9	19933
 801.4	20015
 801.9	19985
 802.4	19920
 802.9	20001
 803.3	20005
 803.8	19983
 804.3	19940
 804.8	20017
 805.3	19975
 805.8	19983
 806.3	19990
 806.8	19979
 807.2	19983
 807.7	19970
 808.2	20013
 808.7	19930
 809.2	19958
 809.7	19902
 810.2	19982
 810.7	19925
 811.1	19954
 811.6	19966
 812.1	19928
 812.6	19901
 813.1	19953
 813.6	19980
 814.1	19963
 814.5	19930
 815.0	19959
 815.5	19935
 816.0	19897
 816.5	19978
 817.0	19930
 817.4	19919
 817.9	19966
 818.4	19903
 818.9	20001
 819.4	19959
 819.9	19943
 820.3	19916
 820.8	19927
 821.3	19933
 821.8	19965
 822.3	19908
 822.7	19890
 823.2	19962
 823.7	19915
 824.2	19922
 824.7	19904
 825.2	19932
 825.6	19917
 826.1	19910
 826.6	19966
 827.1	19963
 827.6	19953
 828.0	19902
 828.5	19876
 829.0	19925
 829.5	19869
 829.9	19879
 830.4	19944
 830.9	19929
 831.4	19958
 831.9	19914
 832.3	20003
 832.8	19947
 833.3	19945
 833.8	20033
 834.2	20025
 834.7	19874
 835.2	19980
 835.7	19983
 836.1	19975
 836.6	19961
 837.1	19970
 837.6	19978
 838.0	20023
 838.5	20049
 839.0	20051
 839.5	20042
 839.9	19963
 840.4	19980
 840.9	19940
 841.4	19987
 841.8	20013
 842.3	20032
 842.8	20055
 843.3	20057
 843.7	19959
 844.2	19949
 844.7	20043
 845.1	20014
 845.6	19939
 846.1	19965
 846.6	19995
 847.0	19895
 847.5	19957
 848.0	19947
 848.4	19991
 848.9	19954
 849.4	19943
 849.8	19975
 850.3	19970
 850.8	20022
 851.3	19994
 851.7	19985
 852.2	19995
 852.7	19987
 853.1	19970
 853.6	19931
 854.1	19979
 854.5	19947
 855.0	19935
 855.5	19934
 855.9	20003
 856.4	19991
 856.9	19909
 857.3	19973
 857.8	19955
 858.3	20003
 858.7	19965
 859.2	19983
 859.7	19979
 860.1	20035
 860.6	20015
 861.1	19955
 861.5	20014
 862.0	20028
 862.4	20001
 862.9	19968
 863.4	20010
 863.8	20015
 864.3	20019
 864.8	19943
 865.2	19997
 865.7	20024
 866.1	20042
 866.6	19961
 867.1	20045
 867.5	20033
 868.0	20008
 868.5	19967
 868.9	19976
 869.4	20087
 869.8	20042
 870.3	20002
 870.8	20072
 871.2	20025
 871.7	20027
 872.1	19978
 872.6	20039
 873.0	20018
 873.5	20106
 874.0	20097
 874.4	19982
 874.9	20020
 875.3	19975
 875.8	19882
 876.2	19675
 876.7	19537
 877.2	19225
 877.6	18843
 878.1	18497
