#xlabel Wavelength (nm)
#ylabel Spectrometer Array Counts
#title Exposure time is 11000 ms
## lambda	counts
 349.8	18275
 350.3	18584
 350.8	18853
 351.3	19038
 351.9	19127
 352.4	19209
 352.9	19248
 353.4	19191
 354.0	19176
 354.5	19206
 355.0	19197
 355.5	19211
 356.0	19159
 356.6	19133
 357.1	19184
 357.6	19155
 358.1	19187
 358.7	19123
 359.2	19137
 359.7	19153
 360.2	19187
 360.8	19154
 361.3	19249
 361.8	19189
 362.3	19219
 362.9	19170
 363.4	19246
 363.9	19246
 364.4	19270
 364.9	19172
 365.5	19244
 366.0	19225
 366.5	19175
 367.0	19219
 367.6	19240
 368.1	19236
 368.6	19161
 369.1	19222
 369.7	19267
 370.2	19188
 370.7	19185
 371.2	19225
 371.8	19273
 372.3	19187
 372.8	19268
 373.3	19276
 373.9	19207
 374.4	19220
 374.9	19273
 375.5	19151
 376.0	19283
 376.5	19234
 377.0	19252
 377.6	19195
 378.1	19270
 378.6	19194
 379.1	19187
 379.7	19163
 380.2	19235
 380.7	19231
 381.2	19182
 381.8	19165
 382.3	19202
 382.8	19179
 383.4	19227
 383.9	19169
 384.4	19323
 384.9	19228
 385.5	19239
 386.0	19235
 386.5	19303
 387.1	19226
 387.6	19250
 388.1	19241
 388.6	19253
 389.2	19230
 389.7	19251
 390.2	19222
 390.8	19304
 391.3	19263
 391.8	19253
 392.3	19228
 392.9	19213
 393.4	19195
 393.9	19257
 394.5	19249
 395.0	19189
 395.5	19203
 396.0	19196
 396.6	19157
 397.1	19251
 397.6	19238
 398.2	19233
 398.7	19229
 399.2	19320
 399.8	19186
 400.3	19253
 400.8	19292
 401.3	19255
 401.9	19276
 402.4	19286
 402.9	19265
 403.5	19288
 404.0	19266
 404.5	19210
 405.1	19207
 405.6	19298
 406.1	19260
 406.7	19257
 407.2	19247
 407.7	19321
 408.2	19311
 408.8	19302
 409.3	19321
 409.8	19358
 410.4	19305
 410.9	19303
 411.4	19244
 412.0	19295
 412.5	19340
 413.0	19282
 413.6	19319
 414.1	19268
 414.6	19300
 415.2	19332
 415.7	19261
 416.2	19303
 416.8	19281
 417.3	19255
 417.8	19271
 418.4	19354
 418.9	19276
 419.4	19407
 420.0	19279
 420.5	19342
 421.0	19276
 421.5	19358
 422.1	19325
 422.6	19376
 423.1	19393
 423.7	19352
 424.2	19331
 424.7	19359
 425.3	19334
 425.8	19346
 426.3	19326
 426.9	19380
 427.4	19316
 427.9	19422
 428.5	19352
 429.0	19383
 429.6	19331
 430.1	19397
 430.6	19383
 431.2	19305
 431.7	19393
 432.2	19351
 432.8	19308
 433.3	19403
 433.8	19395
 434.4	19355
 434.9	19349
 435.4	19384
 436.0	19355
 436.5	19337
 437.0	19403
 437.6	19370
 438.1	19418
 438.6	19414
 439.2	19438
 439.7	19418
 440.2	19356
 440.8	19391
 441.3	19392
 441.8	19386
 442.4	19358
 442.9	19381
 443.5	19419
 444.0	19412
 444.5	19433
 445.1	19338
 445.6	19368
 446.1	19391
 446.7	19395
 447.2	19404
 447.7	19385
 448.3	19445
 448.8	19396
 449.3	19417
 449.9	19349
 450.4	19427
 450.9	19451
 451.5	19438
 452.0	19382
 452.6	19388
 453.1	19430
 453.6	19422
 454.2	19298
 454.7	19363
 455.2	19366
 455.8	19400
 456.3	19329
 456.8	19452
 457.4	19366
 457.9	19371
 458.5	19415
 459.0	19368
 459.5	19403
 460.1	19351
 460.6	19401
 461.1	19385
 461.7	19429
 462.2	19381
 462.7	19423
 463.3	19345
 463.8	19417
 464.4	19485
 464.9	19421
 465.4	19479
 466.0	19370
 466.5	19435
 467.0	19363
 467.6	19424
 468.1	19505
 468.7	19423
 469.2	19344
 469.7	19426
 470.3	19393
 470.8	19422
 471.3	19387
 471.9	19333
 472.4	19380
 473.0	19411
 473.5	19416
 474.0	19397
 474.6	19401
 475.1	19376
 475.6	19437
 476.2	19439
 476.7	19409
 477.3	19467
 477.8	19395
 478.3	19311
 478.9	19513
 479.4	19393
 479.9	19394
 480.5	19370
 481.0	19384
 481.6	19401
 482.1	19453
 482.6	19425
 483.2	19421
 483.7	19531
 484.2	19448
 484.8	19275
 485.3	19368
 485.9	19437
 486.4	19385
 486.9	19390
 487.5	19350
 488.0	19341
 488.6	19399
 489.1	19399
 489.6	19455
 490.2	19438
 490.7	19389
 491.2	19353
 491.8	19403
 492.3	19347
 492.9	19398
 493.4	19403
 493.9	19419
 494.5	19424
 495.0	19499
 495.6	19406
 496.1	19423
 496.6	19484
 497.2	19397
 497.7	19361
 498.2	19457
 498.8	19478
 499.3	19392
 499.9	19443
 500.4	19437
 500.9	19413
 501.5	19403
 502.0	19459
 502.6	19431
 503.1	19506
 503.6	19457
 504.2	19397
 504.7	19394
 505.2	19447
 505.8	19423
 506.3	19486
 506.9	19471
 507.4	19423
 507.9	19379
 508.5	19397
 509.0	19423
 509.6	19466
 510.1	19418
 510.6	19449
 511.2	19453
 511.7	19417
 512.2	19471
 512.8	19475
 513.3	19429
 513.9	19412
 514.4	19458
 514.9	19534
 515.5	19424
 516.0	19498
 516.6	19466
 517.1	19516
 517.6	19498
 518.2	19482
 518.7	19421
 519.3	19479
 519.8	19539
 520.3	19535
 520.9	19495
 521.4	19506
 521.9	19575
 522.5	19503
 523.0	19528
 523.6	19571
 524.1	19418
 524.6	19477
 525.2	19503
 525.7	19534
 526.3	19441
 526.8	19532
 527.3	19477
 527.9	19491
 528.4	19471
 528.9	19519
 529.5	19533
 530.0	19504
 530.6	19540
 531.1	19535
 531.6	19427
 532.2	19539
 532.7	19482
 533.3	19499
 533.8	19611
 534.3	19626
 534.9	19605
 535.4	19532
 536.0	19593
 536.5	19627
 537.0	19566
 537.6	19575
 538.1	19616
 538.6	19621
 539.2	19548
 539.7	19551
 540.3	19647
 540.8	19601
 541.3	19550
 541.9	19577
 542.4	19568
 543.0	19637
 543.5	19592
 544.0	19572
 544.6	19623
 545.1	19628
 545.6	19664
 546.2	19644
 546.7	19554
 547.3	19613
 547.8	19595
 548.3	19648
 548.9	19565
 549.4	19563
 550.0	19535
 550.5	19604
 551.0	19654
 551.6	19600
 552.1	19622
 552.6	19627
 553.2	19598
 553.7	19570
 554.3	19612
 554.8	19679
 555.3	19529
 555.9	19602
 556.4	19548
 556.9	19647
 557.5	19665
 558.0	19617
 558.6	19588
 559.1	19661
 559.6	19630
 560.2	19622
 560.7	19615
 561.3	19578
 561.8	19551
 562.3	19669
 562.9	19637
 563.4	19663
 563.9	19655
 564.5	19657
 565.0	19630
 565.6	19649
 566.1	19646
 566.6	19649
 567.2	19629
 567.7	19737
 568.2	19629
 568.8	19644
 569.3	19613
 569.9	19689
 570.4	19668
 570.9	19639
 571.5	19632
 572.0	19617
 572.5	19671
 573.1	19611
 573.6	19665
 574.1	19649
 574.7	19641
 575.2	19607
 575.8	19634
 576.3	19703
 576.8	19665
 577.4	19668
 577.9	19675
 578.4	19624
 579.0	19625
 579.5	19719
 580.1	19635
 580.6	19626
 581.1	19702
 581.7	19707
 582.2	19635
 582.7	19678
 583.3	19712
 583.8	19677
 584.3	19610
 584.9	19666
 585.4	19665
 586.0	19625
 586.5	19657
 587.0	19608
 587.6	19682
 588.1	19625
 588.6	19695
 589.2	19631
 589.7	19650
 590.2	19632
 590.8	19631
 591.3	19663
 591.9	19599
 592.4	19674
 592.9	19609
 593.5	19604
 594.0	19601
 594.5	19627
 595.1	19612
 595.6	19601
 596.1	19665
 596.7	19629
 597.2	19682
 597.7	19625
 598.3	19643
 598.8	19609
 599.3	19643
 599.9	19621
 600.4	19618
 601.0	19632
 601.5	19620
 602.0	19613
 602.6	19563
 603.1	19583
 603.6	19578
 604.2	19679
 604.7	19579
 605.2	19644
 605.8	19563
 606.3	19582
 606.8	19650
 607.4	19617
 607.9	19648
 608.4	19582
 609.0	19611
 609.5	19652
 610.0	19614
 610.6	19710
 611.1	19605
 611.6	19629
 612.2	19614
 612.7	19673
 613.2	19653
 613.8	19569
 614.3	19586
 614.8	19633
 615.4	19545
 615.9	19619
 616.4	19659
 617.0	19596
 617.5	19678
 618.0	19677
 618.6	19584
 619.1	19596
 619.6	19664
 620.2	19631
 620.7	19672
 621.2	19617
 621.8	19643
 622.3	19659
 622.8	19599
 623.4	19618
 623.9	19673
 624.4	19632
 625.0	19624
 625.5	19624
 626.0	19637
 626.6	19677
 627.1	19675
 627.6	19618
 628.2	19588
 628.7	19625
 629.2	19609
 629.8	19645
 630.3	19665
 630.8	19650
 631.4	19645
 631.9	19678
 632.4	19573
 632.9	19611
 633.5	19626
 634.0	19590
 634.5	19690
 635.1	19626
 635.6	19609
 636.1	19609
 636.7	19678
 637.2	19679
 637.7	19599
 638.3	19700
 638.8	19701
 639.3	19726
 639.8	19685
 640.4	19708
 640.9	19741
 641.4	19646
 642.0	19641
 642.5	19666
 643.0	19644
 643.6	19731
 644.1	19687
 644.6	19695
 645.1	19739
 645.7	19720
 646.2	19685
 646.7	19696
 647.3	19719
 647.8	19723
 648.3	19701
 648.9	19724
 649.4	19635
 649.9	19701
 650.4	19707
 651.0	19739
 651.5	19751
 652.0	19791
 652.6	19724
 653.1	19797
 653.6	19692
 654.1	19775
 654.7	19720
 655.2	19787
 655.7	19820
 656.3	19822
 656.8	19752
 657.3	19800
 657.8	19745
 658.4	19727
 658.9	19725
 659.4	19806
 659.9	19793
 660.5	19761
 661.0	19810
 661.5	19845
 662.1	19797
 662.6	19804
 663.1	19762
 663.6	19845
 664.2	19800
 664.7	19766
 665.2	19687
 665.7	19813
 666.3	19785
 666.8	19792
 667.3	19799
 667.8	19758
 668.4	19798
 668.9	19799
 669.4	19789
 669.9	19831
 670.5	19762
 671.0	19783
 671.5	19744
 672.0	19811
 672.6	19821
 673.1	19852
 673.6	19771
 674.1	19807
 674.7	19801
 675.2	19859
 675.7	19712
 676.2	19734
 676.8	19783
 677.3	19816
 677.8	19742
 678.3	19863
 678.9	19800
 679.4	19758
 679.9	19818
 680.4	19833
 681.0	19797
 681.5	19844
 682.0	19821
 682.5	19845
 683.1	19759
 683.6	19817
 684.1	19762
 684.6	19871
 685.1	19807
 685.7	19835
 686.2	19801
 686.7	19769
 687.2	19762
 687.8	19843
 688.3	19779
 688.8	19809
 689.3	19748
 689.8	19781
 690.4	19781
 690.9	19787
 691.4	19779
 691.9	19821
 692.4	19767
 693.0	19842
 693.5	19811
 694.0	19795
 694.5	19784
 695.1	19765
 695.6	19732
 696.1	19807
 696.6	19787
 697.1	19804
 697.7	19835
 698.2	19768
 698.7	19789
 699.2	19751
 699.7	19759
 700.3	19746
 700.8	19722
 701.3	19842
 701.8	19805
 702.3	19753
 702.8	19759
 703.4	19726
 703.9	19749
 704.4	19758
 704.9	19718
 705.4	19736
 706.0	19847
 706.5	19833
 707.0	19751
 707.5	19747
 708.0	19783
 708.5	19742
 709.1	19816
 709.6	19785
 710.1	19756
 710.6	19745
 711.1	19750
 711.7	19786
 712.2	19794
 712.7	19799
 713.2	19792
 713.7	19795
 714.2	19756
 714.8	19843
 715.3	19797
 715.8	19801
 716.3	19815
 716.8	19722
 717.3	19707
 717.8	19824
 718.4	19836
 718.9	19775
 719.4	19853
 719.9	19761
 720.4	19807
 720.9	19816
 721.4	19817
 722.0	19829
 722.5	19814
 723.0	19799
 723.5	19813
 724.0	19772
 724.5	19763
 725.0	19775
 725.6	19705
 726.1	19754
 726.6	19873
 727.1	19807
 727.6	19847
 728.1	19863
 728.6	19823
 729.1	19804
 729.7	19794
 730.2	19818
 730.7	19857
 731.2	19884
 731.7	19870
 732.2	19876
 732.7	19858
 733.2	19910
 733.8	19881
 734.3	19894
 734.8	19858
 735.3	19881
 735.8	19858
 736.3	19826
 736.8	19858
 737.3	19888
 737.8	19837
 738.4	19829
 738.9	19776
 739.4	19863
 739.9	19847
 740.4	19846
 740.9	19845
 741.4	19841
 741.9	19834
 742.4	19855
 742.9	19841
 743.4	19941
 744.0	19857
 744.5	19852
 745.0	19870
 745.5	19957
 746.0	19938
 746.5	19935
 747.0	19893
 747.5	19880
 748.0	19849
 748.5	19874
 749.0	19898
 749.5	19992
 750.0	19828
 750.5	19901
 751.1	19917
 751.6	19919
 752.1	19921
 752.6	19887
 753.1	19931
 753.6	19869
 754.1	19847
 754.6	19908
 755.1	19866
 755.6	19888
 756.1	19809
 756.6	19927
 757.1	19897
 757.6	19886
 758.1	19865
 758.6	19895
 759.1	19827
 759.6	19871
 760.1	19830
 760.7	19806
 761.2	19892
 761.7	19842
 762.2	19841
 762.7	19901
 763.2	19756
 763.7	19859
 764.2	19802
 764.7	19814
 765.2	19865
 765.7	19841
 766.2	19807
 766.7	19871
 767.2	19832
 767.7	19853
 768.2	19843
 768.7	19812
 769.2	19817
 769.7	19879
 770.2	19846
 770.7	19857
 771.2	19849
 771.7	19826
 772.2	19853
 772.7	19897
 773.2	19895
 773.7	19851
 774.2	19799
 774.7	19857
 775.2	19855
 775.7	19839
 776.2	19831
 776.7	19865
 777.2	19791
 777.7	19879
 778.2	19868
 778.7	19906
 779.2	19919
 779.7	19955
 780.2	19799
 780.7	19875
 781.2	19883
 781.7	19963
 782.2	19885
 782.6	19962
 783.1	19974
 783.6	19933
 784.1	19913
 784.6	19896
 785.1	19912
 785.6	19905
 786.1	19945
 786.6	19963
 787.1	19909
 787.6	19919
 788.1	19920
 788.6	19910
 789.1	19903
 789.6	19951
 790.1	19969
 790.6	19972
 791.1	19881
 791.6	19894
 792.0	19917
 792.5	19967
 793.0	19958
 793.5	19956
 794.0	19894
 794.5	19995
 795.0	19993
 795.5	19963
 796.0	19988
 796.5	19943
 797.0	19978
 797.5	20025
 798.0	19888
 798.4	19942
 798.9	19930
 799.4	19966
 799.9	19981
 800.4	19853
 800.9	19963
 801.4	20047
 801.9	20017
 802.4	19952
 802.9	20037
 803.3	20039
 803.8	20019
 804.3	19973
 804.8	20050
 805.3	20010
 805.8	20011
 806.3	20018
 806.8	20016
 807.2	20021
 807.7	19997
 808.2	20038
 808.7	19963
 809.2	19987
 809.7	19931
 810.2	20010
 810.7	19951
 811.1	19983
 811.6	19994
 812.1	19961
 812.6	19927
 813.1	19989
 813.6	20015
 814.1	19998
 814.5	19962
 815.0	19993
 815.5	19963
 816.0	19930
 816.5	20007
 817.0	19961
 817.4	19951
 817.9	19998
 818.4	19937
 818.9	20033
 819.4	19993
 819.9	19975
 820.3	19951
 820.8	19955
 821.3	19965
 821.8	19999
 822.3	19934
 822.7	19917
 823.2	19992
 823.7	19944
 824.2	19951
 824.7	19939
 825.2	19961
 825.6	19944
 826.1	19941
 826.6	20002
 827.1	19994
 827.6	19988
 828.0	19932
 828.5	19907
 829.0	19951
 829.5	19897
 829.9	19909
 830.4	19971
 830.9	19961
 831.4	19991
 831.9	19948
 832.3	20038
 832.8	19979
 833.3	19979
 833.8	20062
 834.2	20061
 834.7	19900
 835.2	20006
 835.7	20012
 836.1	20005
 836.6	19991
 837.1	19998
 837.6	20016
 838.0	20055
 838.5	20083
 839.0	20083
 839.5	20075
 839.9	19994
 840.4	20009
 840.9	19975
 841.4	20018
 841.8	20045
 842.3	20063
 842.8	20088
 843.3	20089
 843.7	19989
 844.2	19978
 844.7	20075
 845.1	20043
 845.6	19966
 846.1	19995
 846.6	20030
 847.0	19925
 847.5	19986
 848.0	19975
 848.4	20021
 848.9	19990
 849.4	19973
 849.8	20006
 850.3	20004
 850.8	20054
 851.3	20021
 851.7	20020
 852.2	20031
 852.7	20022
 853.1	20003
 853.6	19961
 854.1	20006
 854.5	19978
 855.0	19967
 855.5	19969
 855.9	20035
 856.4	20028
 856.9	19943
 857.3	20012
 857.8	19989
 858.3	20038
 858.7	19995
 859.2	20015
 859.7	20007
 860.1	20069
 860.6	20046
 861.1	19994
 861.5	20043
 862.0	20059
 862.4	20033
 862.9	19999
 863.4	20042
 863.8	20049
 864.3	20051
 864.8	19975
 865.2	20027
 865.7	20053
 866.1	20072
 866.6	19994
 867.1	20080
 867.5	20066
 868.0	20043
 868.5	19997
 868.9	20010
 869.4	20113
 869.8	20071
 870.3	20026
 870.8	20102
 871.2	20043
 871.7	20039
 872.1	19987
 872.6	20043
 873.0	20027
 873.5	20123
 874.0	20122
 874.4	20039
 874.9	20113
 875.3	20122
 875.8	20082
 876.2	19929
 876.7	19825
 877.2	19502
 877.6	19055
 878.1	18590
