#xlabel Wavelength (nm)
#ylabel Spectrometer Array Counts
#title Exposure time is 11000 ms
## lambda	counts
 349.8	18344
 350.3	18642
 350.8	18880
 351.3	19036
 351.9	19099
 352.4	19167
 352.9	19211
 353.4	19149
 354.0	19137
 354.5	19176
 355.0	19179
 355.5	19197
 356.0	19159
 356.6	19131
 357.1	19187
 357.6	19159
 358.1	19188
 358.7	19127
 359.2	19139
 359.7	19155
 360.2	19194
 360.8	19155
 361.3	19250
 361.8	19189
 362.3	19221
 362.9	19169
 363.4	19240
 363.9	19243
 364.4	19273
 364.9	19171
 365.5	19238
 366.0	19222
 366.5	19172
 367.0	19215
 367.6	19245
 368.1	19239
 368.6	19163
 369.1	19220
 369.7	19267
 370.2	19189
 370.7	19182
 371.2	19222
 371.8	19273
 372.3	19185
 372.8	19265
 373.3	19272
 373.9	19207
 374.4	19223
 374.9	19265
 375.5	19152
 376.0	19274
 376.5	19235
 377.0	19254
 377.6	19191
 378.1	19267
 378.6	19196
 379.1	19191
 379.7	19165
 380.2	19235
 380.7	19228
 381.2	19182
 381.8	19164
 382.3	19203
 382.8	19170
 383.4	19222
 383.9	19164
 384.4	19320
 384.9	19218
 385.5	19236
 386.0	19230
 386.5	19303
 387.1	19223
 387.6	19247
 388.1	19241
 388.6	19252
 389.2	19229
 389.7	19248
 390.2	19220
 390.8	19301
 391.3	19260
 391.8	19255
 392.3	19227
 392.9	19213
 393.4	19193
 393.9	19257
 394.5	19248
 395.0	19189
 395.5	19202
 396.0	19200
 396.6	19155
 397.1	19251
 397.6	19235
 398.2	19233
 398.7	19233
 399.2	19316
 399.8	19180
 400.3	19251
 400.8	19293
 401.3	19259
 401.9	19270
 402.4	19287
 402.9	19265
 403.5	19283
 404.0	19261
 404.5	19209
 405.1	19204
 405.6	19292
 406.1	19252
 406.7	19254
 407.2	19253
 407.7	19323
 408.2	19312
 408.8	19300
 409.3	19320
 409.8	19355
 410.4	19308
 410.9	19303
 411.4	19237
 412.0	19293
 412.5	19339
 413.0	19280
 413.6	19319
 414.1	19275
 414.6	19300
 415.2	19334
 415.7	19257
 416.2	19307
 416.8	19282
 417.3	19255
 417.8	19265
 418.4	19352
 418.9	19279
 419.4	19409
 420.0	19282
 420.5	19340
 421.0	19275
 421.5	19347
 422.1	19322
 422.6	19377
 423.1	19393
 423.7	19349
 424.2	19333
 424.7	19360
 425.3	19331
 425.8	19345
 426.3	19321
 426.9	19378
 427.4	19315
 427.9	19419
 428.5	19352
 429.0	19381
 429.6	19328
 430.1	19399
 430.6	19384
 431.2	19304
 431.7	19390
 432.2	19347
 432.8	19304
 433.3	19403
 433.8	19395
 434.4	19349
 434.9	19354
 435.4	19383
 436.0	19353
 436.5	19336
 437.0	19399
 437.6	19372
 438.1	19418
 438.6	19412
 439.2	19437
 439.7	19419
 440.2	19358
 440.8	19383
 441.3	19384
 441.8	19387
 442.4	19353
 442.9	19381
 443.5	19414
 444.0	19409
 444.5	19436
 445.1	19339
 445.6	19364
 446.1	19391
 446.7	19399
 447.2	19408
 447.7	19379
 448.3	19439
 448.8	19391
 449.3	19418
 449.9	19341
 450.4	19423
 450.9	19453
 451.5	19435
 452.0	19385
 452.6	19390
 453.1	19431
 453.6	19423
 454.2	19294
 454.7	19359
 455.2	19366
 455.8	19403
 456.3	19327
 456.8	19451
 457.4	19368
 457.9	19369
 458.5	19410
 459.0	19369
 459.5	19402
 460.1	19347
 460.6	19400
 461.1	19379
 461.7	19427
 462.2	19379
 462.7	19423
 463.3	19341
 463.8	19419
 464.4	19479
 464.9	19419
 465.4	19473
 466.0	19369
 466.5	19437
 467.0	19362
 467.6	19423
 468.1	19502
 468.7	19424
 469.2	19341
 469.7	19424
 470.3	19392
 470.8	19419
 471.3	19383
 471.9	19335
 472.4	19372
 473.0	19410
 473.5	19413
 474.0	19393
 474.6	19395
 475.1	19374
 475.6	19440
 476.2	19443
 476.7	19411
 477.3	19462
 477.8	19395
 478.3	19321
 478.9	19515
 479.4	19391
 479.9	19391
 480.5	19370
 481.0	19382
 481.6	19397
 482.1	19450
 482.6	19422
 483.2	19419
 483.7	19530
 484.2	19443
 484.8	19271
 485.3	19367
 485.9	19437
 486.4	19388
 486.9	19393
 487.5	19348
 488.0	19347
 488.6	19397
 489.1	19399
 489.6	19455
 490.2	19439
 490.7	19387
 491.2	19352
 491.8	19398
 492.3	19349
 492.9	19397
 493.4	19405
 493.9	19422
 494.5	19421
 495.0	19491
 495.6	19404
 496.1	19419
 496.6	19487
 497.2	19395
 497.7	19358
 498.2	19451
 498.8	19479
 499.3	19386
 499.9	19436
 500.4	19433
 500.9	19417
 501.5	19394
 502.0	19456
 502.6	19431
 503.1	19503
 503.6	19457
 504.2	19399
 504.7	19393
 505.2	19446
 505.8	19415
 506.3	19483
 506.9	19476
 507.4	19423
 507.9	19384
 508.5	19398
 509.0	19417
 509.6	19467
 510.1	19422
 510.6	19449
 511.2	19455
 511.7	19417
 512.2	19473
 512.8	19477
 513.3	19433
 513.9	19413
 514.4	19462
 514.9	19530
 515.5	19421
 516.0	19501
 516.6	19463
 517.1	19517
 517.6	19503
 518.2	19482
 518.7	19420
 519.3	19481
 519.8	19536
 520.3	19539
 520.9	19498
 521.4	19513
 521.9	19574
 522.5	19499
 523.0	19531
 523.6	19571
 524.1	19418
 524.6	19475
 525.2	19500
 525.7	19532
 526.3	19442
 526.8	19537
 527.3	19479
 527.9	19495
 528.4	19469
 528.9	19526
 529.5	19531
 530.0	19507
 530.6	19539
 531.1	19534
 531.6	19432
 532.2	19538
 532.7	19479
 533.3	19500
 533.8	19617
 534.3	19625
 534.9	19606
 535.4	19533
 536.0	19592
 536.5	19628
 537.0	19567
 537.6	19573
 538.1	19615
 538.6	19623
 539.2	19546
 539.7	19546
 540.3	19645
 540.8	19603
 541.3	19550
 541.9	19578
 542.4	19576
 543.0	19637
 543.5	19592
 544.0	19571
 544.6	19623
 545.1	19622
 545.6	19661
 546.2	19643
 546.7	19552
 547.3	19612
 547.8	19595
 548.3	19645
 548.9	19566
 549.4	19564
 550.0	19535
 550.5	19606
 551.0	19652
 551.6	19597
 552.1	19619
 552.6	19623
 553.2	19598
 553.7	19573
 554.3	19611
 554.8	19682
 555.3	19529
 555.9	19603
 556.4	19552
 556.9	19649
 557.5	19668
 558.0	19615
 558.6	19589
 559.1	19660
 559.6	19633
 560.2	19627
 560.7	19619
 561.3	19578
 561.8	19555
 562.3	19664
 562.9	19638
 563.4	19663
 563.9	19655
 564.5	19655
 565.0	19631
 565.6	19651
 566.1	19646
 566.6	19648
 567.2	19634
 567.7	19734
 568.2	19629
 568.8	19651
 569.3	19614
 569.9	19691
 570.4	19670
 570.9	19635
 571.5	19632
 572.0	19618
 572.5	19676
 573.1	19611
 573.6	19659
 574.1	19648
 574.7	19639
 575.2	19607
 575.8	19640
 576.3	19704
 576.8	19662
 577.4	19667
 577.9	19675
 578.4	19624
 579.0	19625
 579.5	19715
 580.1	19634
 580.6	19627
 581.1	19696
 581.7	19707
 582.2	19634
 582.7	19676
 583.3	19713
 583.8	19673
 584.3	19607
 584.9	19663
 585.4	19658
 586.0	19626
 586.5	19658
 587.0	19605
 587.6	19679
 588.1	19622
 588.6	19698
 589.2	19633
 589.7	19654
 590.2	19636
 590.8	19636
 591.3	19667
 591.9	19603
 592.4	19669
 592.9	19607
 593.5	19603
 594.0	19599
 594.5	19627
 595.1	19614
 595.6	19599
 596.1	19665
 596.7	19637
 597.2	19679
 597.7	19626
 598.3	19640
 598.8	19612
 599.3	19639
 599.9	19618
 600.4	19620
 601.0	19633
 601.5	19619
 602.0	19615
 602.6	19569
 603.1	19586
 603.6	19579
 604.2	19683
 604.7	19581
 605.2	19649
 605.8	19561
 606.3	19583
 606.8	19649
 607.4	19618
 607.9	19645
 608.4	19581
 609.0	19611
 609.5	19653
 610.0	19617
 610.6	19707
 611.1	19603
 611.6	19629
 612.2	19617
 612.7	19669
 613.2	19651
 613.8	19567
 614.3	19585
 614.8	19631
 615.4	19544
 615.9	19616
 616.4	19660
 617.0	19593
 617.5	19677
 618.0	19677
 618.6	19583
 619.1	19599
 619.6	19667
 620.2	19632
 620.7	19678
 621.2	19620
 621.8	19646
 622.3	19656
 622.8	19597
 623.4	19623
 623.9	19670
 624.4	19633
 625.0	19629
 625.5	19625
 626.0	19635
 626.6	19678
 627.1	19673
 627.6	19623
 628.2	19591
 628.7	19627
 629.2	19609
 629.8	19645
 630.3	19662
 630.8	19654
 631.4	19647
 631.9	19674
 632.4	19575
 632.9	19614
 633.5	19623
 634.0	19586
 634.5	19695
 635.1	19627
 635.6	19614
 636.1	19603
 636.7	19679
 637.2	19682
 637.7	19595
 638.3	19702
 638.8	19707
 639.3	19725
 639.8	19689
 640.4	19709
 640.9	19739
 641.4	19647
 642.0	19648
 642.5	19671
 643.0	19645
 643.6	19732
 644.1	19685
 644.6	19697
 645.1	19747
 645.7	19718
 646.2	19683
 646.7	19698
 647.3	19725
 647.8	19723
 648.3	19698
 648.9	19726
 649.4	19634
 649.9	19709
 650.4	19705
 651.0	19739
 651.5	19747
 652.0	19791
 652.6	19727
 653.1	19798
 653.6	19697
 654.1	19778
 654.7	19716
 655.2	19789
 655.7	19816
 656.3	19823
 656.8	19750
 657.3	19805
 657.8	19747
 658.4	19721
 658.9	19723
 659.4	19805
 659.9	19793
 660.5	19758
 661.0	19805
 661.5	19849
 662.1	19795
 662.6	19806
 663.1	19764
 663.6	19843
 664.2	19801
 664.7	19770
 665.2	19688
 665.7	19814
 666.3	19789
 666.8	19792
 667.3	19796
 667.8	19755
 668.4	19796
 668.9	19799
 669.4	19788
 669.9	19826
 670.5	19761
 671.0	19789
 671.5	19743
 672.0	19815
 672.6	19826
 673.1	19849
 673.6	19767
 674.1	19805
 674.7	19802
 675.2	19859
 675.7	19710
 676.2	19731
 676.8	19785
 677.3	19815
 677.8	19739
 678.3	19866
 678.9	19803
 679.4	19763
 679.9	19813
 680.4	19834
 681.0	19797
 681.5	19843
 682.0	19817
 682.5	19844
 683.1	19761
 683.6	19819
 684.1	19761
 684.6	19870
 685.1	19805
 685.7	19843
 686.2	19804
 686.7	19773
 687.2	19759
 687.8	19844
 688.3	19775
 688.8	19810
 689.3	19747
 689.8	19783
 690.4	19778
 690.9	19787
 691.4	19779
 691.9	19819
 692.4	19765
 693.0	19841
 693.5	19813
 694.0	19790
 694.5	19781
 695.1	19767
 695.6	19733
 696.1	19802
 696.6	19786
 697.1	19805
 697.7	19831
 698.2	19769
 698.7	19792
 699.2	19756
 699.7	19759
 700.3	19744
 700.8	19721
 701.3	19841
 701.8	19808
 702.3	19749
 702.8	19761
 703.4	19729
 703.9	19753
 704.4	19756
 704.9	19716
 705.4	19731
 706.0	19847
 706.5	19836
 707.0	19750
 707.5	19749
 708.0	19783
 708.5	19742
 709.1	19817
 709.6	19783
 710.1	19756
 710.6	19746
 711.1	19754
 711.7	19783
 712.2	19796
 712.7	19805
 713.2	19787
 713.7	19793
 714.2	19758
 714.8	19848
 715.3	19796
 715.8	19797
 716.3	19816
 716.8	19724
 717.3	19705
 717.8	19828
 718.4	19837
 718.9	19779
 719.4	19851
 719.9	19765
 720.4	19812
 720.9	19815
 721.4	19812
 722.0	19832
 722.5	19813
 723.0	19801
 723.5	19808
 724.0	19769
 724.5	19758
 725.0	19773
 725.6	19702
 726.1	19756
 726.6	19875
 727.1	19807
 727.6	19853
 728.1	19863
 728.6	19821
 729.1	19807
 729.7	19795
 730.2	19820
 730.7	19858
 731.2	19880
 731.7	19873
 732.2	19879
 732.7	19858
 733.2	19908
 733.8	19881
 734.3	19897
 734.8	19859
 735.3	19885
 735.8	19860
 736.3	19827
 736.8	19860
 737.3	19887
 737.8	19835
 738.4	19829
 738.9	19771
 739.4	19863
 739.9	19850
 740.4	19845
 740.9	19843
 741.4	19843
 741.9	19835
 742.4	19854
 742.9	19842
 743.4	19932
 744.0	19855
 744.5	19855
 745.0	19874
 745.5	19960
 746.0	19934
 746.5	19940
 747.0	19895
 747.5	19880
 748.0	19850
 748.5	19871
 749.0	19896
 749.5	19991
 750.0	19830
 750.5	19903
 751.1	19921
 751.6	19921
 752.1	19925
 752.6	19892
 753.1	19930
 753.6	19868
 754.1	19846
 754.6	19905
 755.1	19867
 755.6	19885
 756.1	19813
 756.6	19927
 757.1	19895
 757.6	19887
 758.1	19865
 758.6	19893
 759.1	19828
 759.6	19875
 760.1	19831
 760.7	19810
 761.2	19897
 761.7	19843
 762.2	19838
 762.7	19906
 763.2	19756
 763.7	19861
 764.2	19806
 764.7	19813
 765.2	19859
 765.7	19844
 766.2	19808
 766.7	19871
 767.2	19834
 767.7	19849
 768.2	19836
 768.7	19810
 769.2	19817
 769.7	19879
 770.2	19848
 770.7	19860
 771.2	19846
 771.7	19822
 772.2	19851
 772.7	19900
 773.2	19894
 773.7	19848
 774.2	19797
 774.7	19857
 775.2	19855
 775.7	19836
 776.2	19829
 776.7	19863
 777.2	19787
 777.7	19877
 778.2	19867
 778.7	19907
 779.2	19923
 779.7	19958
 780.2	19802
 780.7	19871
 781.2	19886
 781.7	19965
 782.2	19879
 782.6	19964
 783.1	19972
 783.6	19936
 784.1	19909
 784.6	19897
 785.1	19911
 785.6	19907
 786.1	19945
 786.6	19964
 787.1	19909
 787.6	19918
 788.1	19915
 788.6	19906
 789.1	19905
 789.6	19954
 790.1	19971
 790.6	19972
 791.1	19879
 791.6	19892
 792.0	19917
 792.5	19963
 793.0	19954
 793.5	19950
 794.0	19896
 794.5	19995
 795.0	19989
 795.5	19963
 796.0	19990
 796.5	19937
 797.0	19978
 797.5	20027
 798.0	19888
 798.4	19942
 798.9	19929
 799.4	19969
 799.9	19983
 800.4	19857
 800.9	19964
 801.4	20046
 801.9	20019
 802.4	19954
 802.9	20030
 803.3	20036
 803.8	20019
 804.3	19971
 804.8	20045
 805.3	20008
 805.8	20012
 806.3	20019
 806.8	20015
 807.2	20020
 807.7	20001
 808.2	20040
 808.7	19968
 809.2	19990
 809.7	19934
 810.2	20007
 810.7	19955
 811.1	19984
 811.6	19999
 812.1	19960
 812.6	19929
 813.1	19985
 813.6	20013
 814.1	19997
 814.5	19959
 815.0	19994
 815.5	19964
 816.0	19926
 816.5	20011
 817.0	19964
 817.4	19949
 817.9	19992
 818.4	19935
 818.9	20029
 819.4	19988
 819.9	19977
 820.3	19944
 820.8	19952
 821.3	19968
 821.8	19999
 822.3	19933
 822.7	19925
 823.2	19992
 823.7	19945
 824.2	19948
 824.7	19937
 825.2	19962
 825.6	19945
 826.1	19947
 826.6	20005
 827.1	19991
 827.6	19983
 828.0	19931
 828.5	19907
 829.0	19955
 829.5	19896
 829.9	19911
 830.4	19974
 830.9	19960
 831.4	19994
 831.9	19953
 832.3	20037
 832.8	19979
 833.3	19979
 833.8	20065
 834.2	20060
 834.7	19903
 835.2	20008
 835.7	20011
 836.1	20002
 836.6	19992
 837.1	20005
 837.6	20009
 838.0	20058
 838.5	20085
 839.0	20082
 839.5	20072
 839.9	19993
 840.4	20006
 840.9	19969
 841.4	20017
 841.8	20042
 842.3	20061
 842.8	20087
 843.3	20090
 843.7	19987
 844.2	19979
 844.7	20071
 845.1	20046
 845.6	19971
 846.1	19995
 846.6	20026
 847.0	19925
 847.5	19983
 848.0	19971
 848.4	20019
 848.9	19985
 849.4	19975
 849.8	20006
 850.3	20002
 850.8	20054
 851.3	20021
 851.7	20023
 852.2	20029
 852.7	20022
 853.1	20002
 853.6	19963
 854.1	20009
 854.5	19976
 855.0	19965
 855.5	19962
 855.9	20033
 856.4	20025
 856.9	19938
 857.3	20009
 857.8	19988
 858.3	20039
 858.7	19993
 859.2	20012
 859.7	20007
 860.1	20063
 860.6	20042
 861.1	19990
 861.5	20044
 862.0	20055
 862.4	20029
 862.9	19998
 863.4	20039
 863.8	20044
 864.3	20052
 864.8	19973
 865.2	20024
 865.7	20054
 866.1	20072
 866.6	19992
 867.1	20078
 867.5	20065
 868.0	20041
 868.5	19998
 868.9	20012
 869.4	20118
 869.8	20074
 870.3	20032
 870.8	20105
 871.2	20048
 871.7	20043
 872.1	19986
 872.6	20037
 873.0	20010
 873.5	20098
 874.0	20091
 874.4	19992
 874.9	20061
 875.3	20063
 875.8	20042
 876.2	19910
 876.7	19849
 877.2	19563
 877.6	19139
 878.1	18658
