#xlabel Wavelength (nm)
#ylabel Spectrometer Array Counts
#title Exposure time is 12000 ms
## lambda	counts
 349.8	20818
 350.3	21077
 350.8	21350
 351.3	21585
 351.9	21733
 352.4	21891
 352.9	21995
 353.4	21992
 354.0	22015
 354.5	22085
 355.0	22099
 355.5	22125
 356.0	22081
 356.6	22045
 357.1	22097
 357.6	22066
 358.1	22106
 358.7	22038
 359.2	22059
 359.7	22081
 360.2	22124
 360.8	22085
 361.3	22193
 361.8	22136
 362.3	22166
 362.9	22133
 363.4	22219
 363.9	22221
 364.4	22257
 364.9	22155
 365.5	22239
 366.0	22227
 366.5	22183
 367.0	22236
 367.6	22260
 368.1	22271
 368.6	22205
 369.1	22266
 369.7	22327
 370.2	22243
 370.7	22251
 371.2	22304
 371.8	22371
 372.3	22287
 372.8	22377
 373.3	22404
 373.9	22339
 374.4	22367
 374.9	22423
 375.5	22305
 376.0	22453
 376.5	22409
 377.0	22453
 377.6	22405
 378.1	22493
 378.6	22419
 379.1	22444
 379.7	22429
 380.2	22521
 380.7	22529
 381.2	22489
 381.8	22482
 382.3	22524
 382.8	22513
 383.4	22573
 383.9	22517
 384.4	22692
 384.9	22588
 385.5	22610
 386.0	22618
 386.5	22697
 387.1	22631
 387.6	22653
 388.1	22653
 388.6	22685
 389.2	22678
 389.7	22709
 390.2	22696
 390.8	22813
 391.3	22790
 391.8	22795
 392.3	22781
 392.9	22784
 393.4	22795
 393.9	22888
 394.5	22897
 395.0	22855
 395.5	22891
 396.0	22895
 396.6	22870
 397.1	22982
 397.6	22984
 398.2	22985
 398.7	22985
 399.2	23101
 399.8	22967
 400.3	23031
 400.8	23082
 401.3	23053
 401.9	23073
 402.4	23109
 402.9	23093
 403.5	23139
 404.0	23125
 404.5	23083
 405.1	23105
 405.6	23225
 406.1	23200
 406.7	23221
 407.2	23245
 407.7	23338
 408.2	23343
 408.8	23367
 409.3	23405
 409.8	23467
 410.4	23439
 410.9	23455
 411.4	23402
 412.0	23496
 412.5	23552
 413.0	23511
 413.6	23566
 414.1	23533
 414.6	23567
 415.2	23625
 415.7	23571
 416.2	23634
 416.8	23623
 417.3	23613
 417.8	23638
 418.4	23759
 418.9	23690
 419.4	23854
 420.0	23729
 420.5	23814
 421.0	23751
 421.5	23852
 422.1	23832
 422.6	23908
 423.1	23928
 423.7	23901
 424.2	23887
 424.7	23935
 425.3	23917
 425.8	23942
 426.3	23937
 426.9	24015
 427.4	23945
 427.9	24081
 428.5	24023
 429.0	24081
 429.6	24052
 430.1	24155
 430.6	24170
 431.2	24121
 431.7	24258
 432.2	24242
 432.8	24239
 433.3	24373
 433.8	24409
 434.4	24395
 434.9	24429
 435.4	24514
 436.0	24501
 436.5	24523
 437.0	24604
 437.6	24585
 438.1	24656
 438.6	24674
 439.2	24698
 439.7	24697
 440.2	24633
 440.8	24664
 441.3	24677
 441.8	24675
 442.4	24635
 442.9	24667
 443.5	24715
 444.0	24702
 444.5	24728
 445.1	24631
 445.6	24681
 446.1	24717
 446.7	24748
 447.2	24780
 447.7	24780
 448.3	24883
 448.8	24863
 449.3	24920
 449.9	24885
 450.4	25043
 450.9	25111
 451.5	25145
 452.0	25145
 452.6	25198
 453.1	25307
 453.6	25333
 454.2	25244
 454.7	25347
 455.2	25398
 455.8	25479
 456.3	25437
 456.8	25582
 457.4	25523
 457.9	25537
 458.5	25595
 459.0	25565
 459.5	25617
 460.1	25559
 460.6	25611
 461.1	25599
 461.7	25651
 462.2	25599
 462.7	25637
 463.3	25559
 463.8	25631
 464.4	25711
 464.9	25651
 465.4	25737
 466.0	25637
 466.5	25734
 467.0	25668
 467.6	25756
 468.1	25879
 468.7	25822
 469.2	25762
 469.7	25895
 470.3	25895
 470.8	25963
 471.3	25957
 471.9	25937
 472.4	26019
 473.0	26082
 473.5	26131
 474.0	26143
 474.6	26164
 475.1	26195
 475.6	26289
 476.2	26315
 476.7	26305
 477.3	26382
 477.8	26337
 478.3	26275
 478.9	26513
 479.4	26414
 479.9	26446
 480.5	26451
 481.0	26498
 481.6	26538
 482.1	26635
 482.6	26627
 483.2	26665
 483.7	26802
 484.2	26766
 484.8	26609
 485.3	26730
 485.9	26825
 486.4	26809
 486.9	26863
 487.5	26827
 488.0	26857
 488.6	26940
 489.1	26965
 489.6	27037
 490.2	27045
 490.7	27020
 491.2	26985
 491.8	27071
 492.3	27008
 492.9	27075
 493.4	27081
 493.9	27100
 494.5	27100
 495.0	27165
 495.6	27074
 496.1	27083
 496.6	27141
 497.2	27041
 497.7	27003
 498.2	27100
 498.8	27108
 499.3	27017
 499.9	27084
 500.4	27083
 500.9	27078
 501.5	27086
 502.0	27181
 502.6	27175
 503.1	27295
 503.6	27284
 504.2	27265
 504.7	27309
 505.2	27405
 505.8	27428
 506.3	27573
 506.9	27633
 507.4	27641
 507.9	27651
 508.5	27746
 509.0	27839
 509.6	27969
 510.1	27975
 510.6	28057
 511.2	28121
 511.7	28151
 512.2	28253
 512.8	28319
 513.3	28311
 513.9	28321
 514.4	28411
 514.9	28513
 515.5	28412
 516.0	28503
 516.6	28454
 517.1	28501
 517.6	28471
 518.2	28433
 518.7	28351
 519.3	28397
 519.8	28396
 520.3	28363
 520.9	28300
 521.4	28292
 521.9	28331
 522.5	28207
 523.0	28199
 523.6	28233
 524.1	28059
 524.6	28099
 525.2	28123
 525.7	28167
 526.3	28101
 526.8	28195
 527.3	28151
 527.9	28203
 528.4	28201
 528.9	28277
 529.5	28323
 530.0	28343
 530.6	28432
 531.1	28470
 531.6	28410
 532.2	28575
 532.7	28591
 533.3	28676
 533.8	28851
 534.3	28945
 534.9	28986
 535.4	28981
 536.0	29111
 536.5	29191
 537.0	29207
 537.6	29275
 538.1	29363
 538.6	29433
 539.2	29394
 539.7	29457
 540.3	29597
 540.8	29571
 541.3	29549
 541.9	29610
 542.4	29619
 543.0	29705
 543.5	29667
 544.0	29640
 544.6	29686
 545.1	29698
 545.6	29721
 546.2	29709
 546.7	29601
 547.3	29663
 547.8	29636
 548.3	29673
 548.9	29557
 549.4	29551
 550.0	29511
 550.5	29578
 551.0	29615
 551.6	29552
 552.1	29559
 552.6	29566
 553.2	29509
 553.7	29484
 554.3	29520
 554.8	29607
 555.3	29441
 555.9	29514
 556.4	29494
 556.9	29611
 557.5	29648
 558.0	29615
 558.6	29605
 559.1	29686
 559.6	29691
 560.2	29716
 560.7	29743
 561.3	29723
 561.8	29710
 562.3	29859
 562.9	29853
 563.4	29914
 563.9	29910
 564.5	29945
 565.0	29938
 565.6	29966
 566.1	29977
 566.6	29981
 567.2	29975
 567.7	30090
 568.2	30020
 568.8	30026
 569.3	30011
 569.9	30083
 570.4	30060
 570.9	30046
 571.5	30036
 572.0	30041
 572.5	30107
 573.1	30062
 573.6	30133
 574.1	30128
 574.7	30138
 575.2	30123
 575.8	30186
 576.3	30286
 576.8	30259
 577.4	30291
 577.9	30330
 578.4	30311
 579.0	30343
 579.5	30490
 580.1	30413
 580.6	30455
 581.1	30559
 581.7	30613
 582.2	30571
 582.7	30634
 583.3	30702
 583.8	30687
 584.3	30657
 584.9	30735
 585.4	30755
 586.0	30747
 586.5	30791
 587.0	30776
 587.6	30875
 588.1	30839
 588.6	30916
 589.2	30863
 589.7	30892
 590.2	30891
 590.8	30870
 591.3	30895
 591.9	30833
 592.4	30890
 592.9	30809
 593.5	30785
 594.0	30763
 594.5	30770
 595.1	30716
 595.6	30660
 596.1	30702
 596.7	30659
 597.2	30676
 597.7	30582
 598.3	30581
 598.8	30540
 599.3	30515
 599.9	30455
 600.4	30440
 601.0	30430
 601.5	30416
 602.0	30383
 602.6	30331
 603.1	30350
 603.6	30352
 604.2	30457
 604.7	30367
 605.2	30447
 605.8	30360
 606.3	30395
 606.8	30479
 607.4	30483
 607.9	30551
 608.4	30506
 609.0	30568
 609.5	30629
 610.0	30625
 610.6	30740
 611.1	30679
 611.6	30751
 612.2	30775
 612.7	30861
 613.2	30889
 613.8	30855
 614.3	30919
 614.8	30995
 615.4	30972
 615.9	31114
 616.4	31215
 617.0	31201
 617.5	31330
 618.0	31394
 618.6	31379
 619.1	31465
 619.6	31582
 620.2	31651
 620.7	31771
 621.2	31792
 621.8	31869
 622.3	31943
 622.8	31961
 623.4	32027
 623.9	32121
 624.4	32124
 625.0	32149
 625.5	32149
 626.0	32173
 626.6	32246
 627.1	32224
 627.6	32162
 628.2	32129
 628.7	32177
 629.2	32159
 629.8	32167
 630.3	32146
 630.8	32121
 631.4	32071
 631.9	32066
 632.4	31915
 632.9	31902
 633.5	31869
 634.0	31797
 634.5	31820
 635.1	31729
 635.6	31695
 636.1	31635
 636.7	31626
 637.2	31601
 637.7	31461
 638.3	31543
 638.8	31496
 639.3	31499
 639.8	31401
 640.4	31389
 640.9	31403
 641.4	31289
 642.0	31253
 642.5	31258
 643.0	31225
 643.6	31309
 644.1	31257
 644.6	31271
 645.1	31283
 645.7	31284
 646.2	31229
 646.7	31259
 647.3	31285
 647.8	31312
 648.3	31281
 648.9	31344
 649.4	31259
 649.9	31340
 650.4	31379
 651.0	31439
 651.5	31467
 652.0	31547
 652.6	31511
 653.1	31621
 653.6	31549
 654.1	31635
 654.7	31625
 655.2	31738
 655.7	31798
 656.3	31831
 656.8	31807
 657.3	31876
 657.8	31847
 658.4	31878
 658.9	31919
 659.4	32006
 659.9	32025
 660.5	32011
 661.0	32063
 661.5	32114
 662.1	32091
 662.6	32115
 663.1	32075
 663.6	32175
 664.2	32117
 664.7	32107
 665.2	32035
 665.7	32165
 666.3	32115
 666.8	32113
 667.3	32110
 667.8	32075
 668.4	32091
 668.9	32099
 669.4	32068
 669.9	32083
 670.5	31998
 671.0	32015
 671.5	31966
 672.0	31997
 672.6	31982
 673.1	32015
 673.6	31901
 674.1	31925
 674.7	31907
 675.2	31942
 675.7	31797
 676.2	31767
 676.8	31835
 677.3	31834
 677.8	31745
 678.3	31841
 678.9	31762
 679.4	31681
 679.9	31756
 680.4	31729
 681.0	31685
 681.5	31713
 682.0	31653
 682.5	31693
 683.1	31587
 683.6	31623
 684.1	31547
 684.6	31654
 685.1	31597
 685.7	31607
 686.2	31582
 686.7	31535
 687.2	31523
 687.8	31593
 688.3	31531
 688.8	31547
 689.3	31484
 689.8	31525
 690.4	31510
 690.9	31525
 691.4	31555
 691.9	31550
 692.4	31529
 693.0	31605
 693.5	31569
 694.0	31557
 694.5	31555
 695.1	31526
 695.6	31483
 696.1	31561
 696.6	31547
 697.1	31573
 697.7	31595
 698.2	31515
 698.7	31550
 699.2	31511
 699.7	31523
 700.3	31479
 700.8	31449
 701.3	31543
 701.8	31503
 702.3	31445
 702.8	31441
 703.4	31422
 703.9	31400
 704.4	31368
 704.9	31334
 705.4	31325
 706.0	31385
 706.5	31359
 707.0	31258
 707.5	31231
 708.0	31249
 708.5	31178
 709.1	31234
 709.6	31179
 710.1	31111
 710.6	31067
 711.1	31038
 711.7	31039
 712.2	30997
 712.7	30991
 713.2	30937
 713.7	30917
 714.2	30829
 714.8	30903
 715.3	30813
 715.8	30781
 716.3	30754
 716.8	30654
 717.3	30623
 717.8	30709
 718.4	30704
 718.9	30623
 719.4	30712
 719.9	30595
 720.4	30641
 720.9	30669
 721.4	30659
 722.0	30694
 722.5	30690
 723.0	30689
 723.5	30725
 724.0	30692
 724.5	30694
 725.0	30754
 725.6	30690
 726.1	30769
 726.6	30895
 727.1	30843
 727.6	30906
 728.1	30947
 728.6	30907
 729.1	30924
 729.7	30911
 730.2	30943
 730.7	30985
 731.2	31031
 731.7	31035
 732.2	31058
 732.7	31030
 733.2	31087
 733.8	31068
 734.3	31101
 734.8	31088
 735.3	31123
 735.8	31134
 736.3	31119
 736.8	31177
 737.3	31246
 737.8	31196
 738.4	31199
 738.9	31158
 739.4	31263
 739.9	31261
 740.4	31283
 740.9	31255
 741.4	31269
 741.9	31255
 742.4	31282
 742.9	31271
 743.4	31354
 744.0	31258
 744.5	31246
 745.0	31253
 745.5	31331
 746.0	31288
 746.5	31309
 747.0	31230
 747.5	31207
 748.0	31171
 748.5	31195
 749.0	31187
 749.5	31281
 750.0	31092
 750.5	31129
 751.1	31121
 751.6	31116
 752.1	31080
 752.6	31030
 753.1	31063
 753.6	30971
 754.1	30938
 754.6	30963
 755.1	30897
 755.6	30892
 756.1	30786
 756.6	30861
 757.1	30817
 757.6	30783
 758.1	30728
 758.6	30702
 759.1	30607
 759.6	30633
 760.1	30555
 760.7	30477
 761.2	30546
 761.7	30479
 762.2	30433
 762.7	30449
 763.2	30306
 763.7	30370
 764.2	30264
 764.7	30247
 765.2	30251
 765.7	30185
 766.2	30127
 766.7	30138
 767.2	30057
 767.7	30036
 768.2	29999
 768.7	29935
 769.2	29898
 769.7	29919
 770.2	29871
 770.7	29851
 771.2	29803
 771.7	29775
 772.2	29767
 772.7	29799
 773.2	29755
 773.7	29689
 774.2	29622
 774.7	29651
 775.2	29615
 775.7	29595
 776.2	29567
 776.7	29587
 777.2	29499
 777.7	29571
 778.2	29527
 778.7	29569
 779.2	29565
 779.7	29596
 780.2	29409
 780.7	29472
 781.2	29464
 781.7	29521
 782.2	29438
 782.6	29505
 783.1	29504
 783.6	29461
 784.1	29409
 784.6	29395
 785.1	29402
 785.6	29398
 786.1	29423
 786.6	29431
 787.1	29369
 787.6	29359
 788.1	29337
 788.6	29322
 789.1	29296
 789.6	29311
 790.1	29332
 790.6	29315
 791.1	29202
 791.6	29194
 792.0	29184
 792.5	29213
 793.0	29165
 793.5	29149
 794.0	29085
 794.5	29150
 795.0	29081
 795.5	29063
 796.0	29045
 796.5	28957
 797.0	28961
 797.5	28990
 798.0	28805
 798.4	28811
 798.9	28769
 799.4	28761
 799.9	28735
 800.4	28564
 800.9	28646
 801.4	28669
 801.9	28596
 802.4	28478
 802.9	28518
 803.3	28483
 803.8	28415
 804.3	28332
 804.8	28358
 805.3	28283
 805.8	28227
 806.3	28191
 806.8	28140
 807.2	28098
 807.7	28045
 808.2	28033
 808.7	27919
 809.2	27898
 809.7	27791
 810.2	27843
 810.7	27729
 811.1	27719
 811.6	27700
 812.1	27615
 812.6	27539
 813.1	27563
 813.6	27551
 814.1	27517
 814.5	27438
 815.0	27445
 815.5	27367
 816.0	27300
 816.5	27333
 817.0	27263
 817.4	27226
 817.9	27237
 818.4	27133
 818.9	27211
 819.4	27143
 819.9	27090
 820.3	27046
 820.8	27023
 821.3	27021
 821.8	26999
 822.3	26920
 822.7	26887
 823.2	26943
 823.7	26867
 824.2	26858
 824.7	26819
 825.2	26825
 825.6	26785
 826.1	26756
 826.6	26807
 827.1	26770
 827.6	26751
 828.0	26675
 828.5	26642
 829.0	26673
 829.5	26594
 829.9	26587
 830.4	26638
 830.9	26610
 831.4	26626
 831.9	26566
 832.3	26631
 832.8	26560
 833.3	26553
 833.8	26629
 834.2	26615
 834.7	26440
 835.2	26528
 835.7	26521
 836.1	26514
 836.6	26483
 837.1	26471
 837.6	26470
 838.0	26499
 838.5	26514
 839.0	26512
 839.5	26495
 839.9	26405
 840.4	26411
 840.9	26362
 841.4	26394
 841.8	26415
 842.3	26422
 842.8	26426
 843.3	26415
 843.7	26298
 844.2	26281
 844.7	26356
 845.1	26325
 845.6	26227
 846.1	26243
 846.6	26267
 847.0	26153
 847.5	26201
 848.0	26171
 848.4	26199
 848.9	26149
 849.4	26115
 849.8	26119
 850.3	26121
 850.8	26155
 851.3	26097
 851.7	26077
 852.2	26069
 852.7	26049
 853.1	26029
 853.6	25951
 854.1	25978
 854.5	25928
 855.0	25911
 855.5	25887
 855.9	25938
 856.4	25896
 856.9	25801
 857.3	25847
 857.8	25793
 858.3	25807
 858.7	25739
 859.2	25756
 859.7	25743
 860.1	25795
 860.6	25742
 861.1	25657
 861.5	25691
 862.0	25673
 862.4	25629
 862.9	25563
 863.4	25587
 863.8	25578
 864.3	25554
 864.8	25451
 865.2	25476
 865.7	25471
 866.1	25484
 866.6	25374
 867.1	25444
 867.5	25411
 868.0	25391
 868.5	25327
 868.9	25298
 869.4	25397
 869.8	25351
 870.3	25298
 870.8	25369
 871.2	25315
 871.7	25309
 872.1	25253
 872.6	25301
 873.0	25266
 873.5	25339
 874.0	25305
 874.4	25149
 874.9	25155
 875.3	25067
 875.8	24921
 876.2	24652
 876.7	24455
 877.2	24060
 877.6	23618
 878.1	23207
