#xlabel Wavelength (nm)
#ylabel Spectrometer Array Counts
#title Exposure time is 12000 ms
## lambda	counts
 349.8	20575
 350.3	20816
 350.8	21075
 351.3	21296
 351.9	21442
 352.4	21587
 352.9	21684
 353.4	21671
 354.0	21697
 354.5	21770
 355.0	21779
 355.5	21810
 356.0	21774
 356.6	21731
 357.1	21782
 357.6	21755
 358.1	21788
 358.7	21716
 359.2	21733
 359.7	21743
 360.2	21779
 360.8	21737
 361.3	21842
 361.8	21772
 362.3	21805
 362.9	21759
 363.4	21835
 363.9	21831
 364.4	21862
 364.9	21753
 365.5	21833
 366.0	21815
 366.5	21756
 367.0	21808
 367.6	21826
 368.1	21834
 368.6	21751
 369.1	21816
 369.7	21863
 370.2	21770
 370.7	21771
 371.2	21817
 371.8	21867
 372.3	21778
 372.8	21859
 373.3	21875
 373.9	21800
 374.4	21819
 374.9	21862
 375.5	21742
 376.0	21870
 376.5	21825
 377.0	21851
 377.6	21789
 378.1	21869
 378.6	21781
 379.1	21793
 379.7	21766
 380.2	21839
 380.7	21834
 381.2	21782
 381.8	21766
 382.3	21799
 382.8	21777
 383.4	21821
 383.9	21768
 384.4	21931
 384.9	21817
 385.5	21833
 386.0	21840
 386.5	21911
 387.1	21832
 387.6	21851
 388.1	21839
 388.6	21852
 389.2	21835
 389.7	21853
 390.2	21824
 390.8	21922
 391.3	21873
 391.8	21859
 392.3	21829
 392.9	21803
 393.4	21795
 393.9	21869
 394.5	21859
 395.0	21787
 395.5	21812
 396.0	21799
 396.6	21752
 397.1	21851
 397.6	21847
 398.2	21840
 398.7	21832
 399.2	21938
 399.8	21793
 400.3	21859
 400.8	21903
 401.3	21867
 401.9	21878
 402.4	21899
 402.9	21873
 403.5	21898
 404.0	21868
 404.5	21809
 405.1	21808
 405.6	21910
 406.1	21866
 406.7	21862
 407.2	21855
 407.7	21932
 408.2	21918
 408.8	21905
 409.3	21924
 409.8	21965
 410.4	21919
 410.9	21911
 411.4	21843
 412.0	21907
 412.5	21951
 413.0	21889
 413.6	21926
 414.1	21873
 414.6	21895
 415.2	21943
 415.7	21869
 416.2	21907
 416.8	21876
 417.3	21855
 417.8	21867
 418.4	21956
 418.9	21879
 419.4	22023
 420.0	21879
 420.5	21950
 421.0	21864
 421.5	21953
 422.1	21922
 422.6	21972
 423.1	21995
 423.7	21949
 424.2	21925
 424.7	21962
 425.3	21931
 425.8	21942
 426.3	21918
 426.9	21981
 427.4	21907
 427.9	22029
 428.5	21945
 429.0	21977
 429.6	21919
 430.1	22000
 430.6	21980
 431.2	21894
 431.7	21994
 432.2	21937
 432.8	21903
 433.3	22004
 433.8	21998
 434.4	21941
 434.9	21941
 435.4	21983
 436.0	21944
 436.5	21929
 437.0	21998
 437.6	21951
 438.1	22004
 438.6	22003
 439.2	22029
 439.7	22017
 440.2	21942
 440.8	21977
 441.3	21989
 441.8	21974
 442.4	21937
 442.9	21974
 443.5	22016
 444.0	21999
 444.5	22025
 445.1	21916
 445.6	21955
 446.1	21966
 446.7	21983
 447.2	21993
 447.7	21962
 448.3	22028
 448.8	21970
 449.3	21996
 449.9	21910
 450.4	22013
 450.9	22037
 451.5	22011
 452.0	21964
 452.6	21963
 453.1	22014
 453.6	22004
 454.2	21853
 454.7	21926
 455.2	21934
 455.8	21977
 456.3	21896
 456.8	22032
 457.4	21936
 457.9	21933
 458.5	21991
 459.0	21937
 459.5	21977
 460.1	21919
 460.6	21967
 461.1	21950
 461.7	22006
 462.2	21957
 462.7	21994
 463.3	21906
 463.8	21986
 464.4	22060
 464.9	21980
 465.4	22053
 466.0	21929
 466.5	22009
 467.0	21923
 467.6	21984
 468.1	22079
 468.7	21991
 469.2	21892
 469.7	21997
 470.3	21959
 470.8	21986
 471.3	21954
 471.9	21891
 472.4	21942
 473.0	21972
 473.5	21983
 474.0	21963
 474.6	21956
 475.1	21938
 475.6	22008
 476.2	22020
 476.7	21983
 477.3	22030
 477.8	21957
 478.3	21868
 478.9	22092
 479.4	21951
 479.9	21956
 480.5	21927
 481.0	21940
 481.6	21955
 482.1	22014
 482.6	21978
 483.2	21978
 483.7	22093
 484.2	22011
 484.8	21823
 485.3	21917
 485.9	21994
 486.4	21937
 486.9	21951
 487.5	21890
 488.0	21891
 488.6	21955
 489.1	21952
 489.6	22007
 490.2	21990
 490.7	21946
 491.2	21900
 491.8	21959
 492.3	21901
 492.9	21952
 493.4	21958
 493.9	21975
 494.5	21978
 495.0	22051
 495.6	21962
 496.1	21974
 496.6	22042
 497.2	21943
 497.7	21903
 498.2	22012
 498.8	22037
 499.3	21935
 499.9	21999
 500.4	21992
 500.9	21970
 501.5	21946
 502.0	22021
 502.6	21981
 503.1	22071
 503.6	22014
 504.2	21948
 504.7	21941
 505.2	21999
 505.8	21962
 506.3	22038
 506.9	22026
 507.4	21957
 507.9	21913
 508.5	21934
 509.0	21956
 509.6	22019
 510.1	21962
 510.6	21983
 511.2	21988
 511.7	21945
 512.2	22015
 512.8	22022
 513.3	21964
 513.9	21934
 514.4	21996
 514.9	22074
 515.5	21951
 516.0	22037
 516.6	21995
 517.1	22058
 517.6	22040
 518.2	22019
 518.7	21953
 519.3	22019
 519.8	22076
 520.3	22072
 520.9	22025
 521.4	22037
 521.9	22117
 522.5	22031
 523.0	22073
 523.6	22117
 524.1	21951
 524.6	22011
 525.2	22045
 525.7	22079
 526.3	21980
 526.8	22079
 527.3	22009
 527.9	22031
 528.4	22002
 528.9	22057
 529.5	22064
 530.0	22034
 530.6	22079
 531.1	22065
 531.6	21949
 532.2	22068
 532.7	22009
 533.3	22030
 533.8	22154
 534.3	22169
 534.9	22137
 535.4	22053
 536.0	22119
 536.5	22143
 537.0	22087
 537.6	22098
 538.1	22138
 538.6	22148
 539.2	22059
 539.7	22067
 540.3	22180
 540.8	22115
 541.3	22058
 541.9	22089
 542.4	22084
 543.0	22155
 543.5	22111
 544.0	22079
 544.6	22127
 545.1	22142
 545.6	22187
 546.2	22164
 546.7	22064
 547.3	22133
 547.8	22109
 548.3	22170
 548.9	22070
 549.4	22075
 550.0	22042
 550.5	22117
 551.0	22173
 551.6	22108
 552.1	22140
 552.6	22139
 553.2	22105
 553.7	22078
 554.3	22123
 554.8	22200
 555.3	22033
 555.9	22097
 556.4	22052
 556.9	22155
 557.5	22183
 558.0	22124
 558.6	22092
 559.1	22164
 559.6	22135
 560.2	22129
 560.7	22126
 561.3	22079
 561.8	22044
 562.3	22167
 562.9	22142
 563.4	22163
 563.9	22157
 564.5	22152
 565.0	22133
 565.6	22151
 566.1	22147
 566.6	22143
 567.2	22126
 567.7	22239
 568.2	22131
 568.8	22149
 569.3	22109
 569.9	22190
 570.4	22170
 570.9	22134
 571.5	22124
 572.0	22116
 572.5	22173
 573.1	22110
 573.6	22161
 574.1	22146
 574.7	22133
 575.2	22096
 575.8	22129
 576.3	22208
 576.8	22159
 577.4	22161
 577.9	22176
 578.4	22107
 579.0	22108
 579.5	22221
 580.1	22115
 580.6	22111
 581.1	22188
 581.7	22203
 582.2	22109
 582.7	22158
 583.3	22198
 583.8	22157
 584.3	22087
 584.9	22150
 585.4	22139
 586.0	22106
 586.5	22133
 587.0	22080
 587.6	22163
 588.1	22101
 588.6	22173
 589.2	22111
 589.7	22122
 590.2	22109
 590.8	22109
 591.3	22137
 591.9	22077
 592.4	22160
 592.9	22085
 593.5	22078
 594.0	22079
 594.5	22107
 595.1	22094
 595.6	22074
 596.1	22144
 596.7	22119
 597.2	22171
 597.7	22099
 598.3	22122
 598.8	22095
 599.3	22114
 599.9	22101
 600.4	22099
 601.0	22115
 601.5	22104
 602.0	22095
 602.6	22037
 603.1	22058
 603.6	22061
 604.2	22174
 604.7	22061
 605.2	22136
 605.8	22033
 606.3	22055
 606.8	22127
 607.4	22097
 607.9	22129
 608.4	22060
 609.0	22086
 609.5	22126
 610.0	22089
 610.6	22184
 611.1	22081
 611.6	22090
 612.2	22082
 612.7	22146
 613.2	22123
 613.8	22028
 614.3	22045
 614.8	22090
 615.4	21991
 615.9	22077
 616.4	22123
 617.0	22049
 617.5	22149
 618.0	22140
 618.6	22035
 619.1	22048
 619.6	22116
 620.2	22082
 620.7	22129
 621.2	22065
 621.8	22093
 622.3	22105
 622.8	22037
 623.4	22061
 623.9	22115
 624.4	22081
 625.0	22074
 625.5	22067
 626.0	22076
 626.6	22126
 627.1	22120
 627.6	22069
 628.2	22026
 628.7	22059
 629.2	22051
 629.8	22089
 630.3	22097
 630.8	22089
 631.4	22085
 631.9	22121
 632.4	22015
 632.9	22053
 633.5	22065
 634.0	22031
 634.5	22129
 635.1	22069
 635.6	22055
 636.1	22051
 636.7	22125
 637.2	22133
 637.7	22043
 638.3	22159
 638.8	22165
 639.3	22185
 639.8	22131
 640.4	22160
 640.9	22189
 641.4	22093
 642.0	22088
 642.5	22119
 643.0	22088
 643.6	22187
 644.1	22147
 644.6	22153
 645.1	22204
 645.7	22169
 646.2	22131
 646.7	22148
 647.3	22183
 647.8	22175
 648.3	22152
 648.9	22183
 649.4	22073
 649.9	22151
 650.4	22152
 651.0	22191
 651.5	22198
 652.0	22251
 652.6	22177
 653.1	22247
 653.6	22135
 654.1	22221
 654.7	22153
 655.2	22231
 655.7	22265
 656.3	22268
 656.8	22196
 657.3	22243
 657.8	22177
 658.4	22161
 658.9	22159
 659.4	22246
 659.9	22231
 660.5	22189
 661.0	22237
 661.5	22288
 662.1	22232
 662.6	22242
 663.1	22193
 663.6	22275
 664.2	22229
 664.7	22199
 665.2	22108
 665.7	22255
 666.3	22214
 666.8	22227
 667.3	22231
 667.8	22183
 668.4	22225
 668.9	22236
 669.4	22226
 669.9	22265
 670.5	22194
 671.0	22214
 671.5	22169
 672.0	22246
 672.6	22251
 673.1	22293
 673.6	22193
 674.1	22239
 674.7	22229
 675.2	22296
 675.7	22136
 676.2	22151
 676.8	22225
 677.3	22252
 677.8	22175
 678.3	22312
 678.9	22234
 679.4	22187
 679.9	22258
 680.4	22268
 681.0	22235
 681.5	22279
 682.0	22254
 682.5	22290
 683.1	22195
 683.6	22256
 684.1	22191
 684.6	22319
 685.1	22244
 685.7	22278
 686.2	22245
 686.7	22212
 687.2	22191
 687.8	22288
 688.3	22217
 688.8	22248
 689.3	22185
 689.8	22225
 690.4	22218
 690.9	22222
 691.4	22218
 691.9	22256
 692.4	22200
 693.0	22284
 693.5	22251
 694.0	22232
 694.5	22229
 695.1	22199
 695.6	22155
 696.1	22238
 696.6	22219
 697.1	22237
 697.7	22273
 698.2	22189
 698.7	22221
 699.2	22184
 699.7	22194
 700.3	22175
 700.8	22148
 701.3	22280
 701.8	22236
 702.3	22181
 702.8	22187
 703.4	22159
 703.9	22179
 704.4	22189
 704.9	22161
 705.4	22166
 706.0	22280
 706.5	22277
 707.0	22181
 707.5	22182
 708.0	22226
 708.5	22175
 709.1	22260
 709.6	22224
 710.1	22196
 710.6	22177
 711.1	22187
 711.7	22221
 712.2	22228
 712.7	22248
 713.2	22230
 713.7	22239
 714.2	22188
 714.8	22293
 715.3	22239
 715.8	22247
 716.3	22257
 716.8	22161
 717.3	22150
 717.8	22275
 718.4	22289
 718.9	22216
 719.4	22317
 719.9	22207
 720.4	22255
 720.9	22261
 721.4	22254
 722.0	22279
 722.5	22258
 723.0	22244
 723.5	22255
 724.0	22208
 724.5	22197
 725.0	22220
 725.6	22139
 726.1	22191
 726.6	22321
 727.1	22251
 727.6	22297
 728.1	22317
 728.6	22258
 729.1	22246
 729.7	22233
 730.2	22259
 730.7	22298
 731.2	22333
 731.7	22319
 732.2	22324
 732.7	22303
 733.2	22353
 733.8	22327
 734.3	22334
 734.8	22299
 735.3	22317
 735.8	22303
 736.3	22262
 736.8	22296
 737.3	22337
 737.8	22278
 738.4	22267
 738.9	22205
 739.4	22305
 739.9	22286
 740.4	22283
 740.9	22273
 741.4	22269
 741.9	22266
 742.4	22287
 742.9	22268
 743.4	22377
 744.0	22277
 744.5	22275
 745.0	22295
 745.5	22395
 746.0	22368
 746.5	22381
 747.0	22313
 747.5	22310
 748.0	22283
 748.5	22299
 749.0	22322
 749.5	22439
 750.0	22258
 750.5	22332
 751.1	22349
 751.6	22357
 752.1	22359
 752.6	22325
 753.1	22364
 753.6	22301
 754.1	22279
 754.6	22337
 755.1	22301
 755.6	22319
 756.1	22237
 756.6	22360
 757.1	22333
 757.6	22326
 758.1	22301
 758.6	22329
 759.1	22265
 759.6	22319
 760.1	22272
 760.7	22243
 761.2	22336
 761.7	22275
 762.2	22274
 762.7	22344
 763.2	22190
 763.7	22314
 764.2	22243
 764.7	22258
 765.2	22309
 765.7	22289
 766.2	22256
 766.7	22326
 767.2	22278
 767.7	22310
 768.2	22295
 768.7	22271
 769.2	22269
 769.7	22334
 770.2	22311
 770.7	22309
 771.2	22299
 771.7	22287
 772.2	22303
 772.7	22365
 773.2	22349
 773.7	22305
 774.2	22249
 774.7	22318
 775.2	22315
 775.7	22298
 776.2	22297
 776.7	22326
 777.2	22247
 777.7	22349
 778.2	22328
 778.7	22380
 779.2	22391
 779.7	22438
 780.2	22255
 780.7	22346
 781.2	22353
 781.7	22434
 782.2	22348
 782.6	22434
 783.1	22445
 783.6	22411
 784.1	22379
 784.6	22369
 785.1	22380
 785.6	22372
 786.1	22421
 786.6	22445
 787.1	22376
 787.6	22391
 788.1	22385
 788.6	22381
 789.1	22369
 789.6	22416
 790.1	22447
 790.6	22449
 791.1	22341
 791.6	22363
 792.0	22399
 792.5	22449
 793.0	22439
 793.5	22439
 794.0	22380
 794.5	22481
 795.0	22466
 795.5	22447
 796.0	22470
 796.5	22415
 797.0	22458
 797.5	22522
 798.0	22363
 798.4	22423
 798.9	22421
 799.4	22451
 799.9	22470
 800.4	22327
 800.9	22458
 801.4	22545
 801.9	22518
 802.4	22445
 802.9	22533
 803.3	22543
 803.8	22519
 804.3	22468
 804.8	22547
 805.3	22515
 805.8	22515
 806.3	22522
 806.8	22521
 807.2	22526
 807.7	22515
 808.2	22553
 808.7	22481
 809.2	22507
 809.7	22439
 810.2	22527
 810.7	22467
 811.1	22502
 811.6	22520
 812.1	22479
 812.6	22446
 813.1	22507
 813.6	22543
 814.1	22515
 814.5	22487
 815.0	22527
 815.5	22493
 816.0	22457
 816.5	22533
 817.0	22487
 817.4	22479
 817.9	22525
 818.4	22463
 818.9	22570
 819.4	22518
 819.9	22505
 820.3	22476
 820.8	22489
 821.3	22505
 821.8	22512
 822.3	22466
 822.7	22453
 823.2	22534
 823.7	22481
 824.2	22492
 824.7	22473
 825.2	22501
 825.6	22487
 826.1	22476
 826.6	22542
 827.1	22535
 827.6	22533
 828.0	22467
 828.5	22445
 829.0	22498
 829.5	22437
 829.9	22447
 830.4	22521
 830.9	22506
 831.4	22537
 831.9	22492
 832.3	22583
 832.8	22526
 833.3	22529
 833.8	22622
 834.2	22620
 834.7	22447
 835.2	22553
 835.7	22564
 836.1	22559
 836.6	22545
 837.1	22549
 837.6	22559
 838.0	22606
 838.5	22635
 839.0	22640
 839.5	22633
 839.9	22549
 840.4	22564
 840.9	22526
 841.4	22573
 841.8	22601
 842.3	22621
 842.8	22649
 843.3	22647
 843.7	22544
 844.2	22537
 844.7	22632
 845.1	22607
 845.6	22522
 846.1	22553
 846.6	22591
 847.0	22475
 847.5	22540
 848.0	22527
 848.4	22575
 848.9	22535
 849.4	22523
 849.8	22556
 850.3	22559
 850.8	22615
 851.3	22574
 851.7	22577
 852.2	22585
 852.7	22581
 853.1	22562
 853.6	22516
 854.1	22565
 854.5	22532
 855.0	22521
 855.5	22522
 855.9	22594
 856.4	22580
 856.9	22496
 857.3	22569
 857.8	22543
 858.3	22593
 858.7	22554
 859.2	22587
 859.7	22569
 860.1	22639
 860.6	22619
 861.1	22555
 861.5	22614
 862.0	22629
 862.4	22600
 862.9	22559
 863.4	22606
 863.8	22615
 864.3	22626
 864.8	22538
 865.2	22599
 865.7	22623
 866.1	22651
 866.6	22565
 867.1	22650
 867.5	22640
 868.0	22631
 868.5	22582
 868.9	22589
 869.4	22705
 869.8	22663
 870.3	22621
 870.8	22703
 871.2	22650
 871.7	22654
 872.1	22604
 872.6	22657
 873.0	22629
 873.5	22719
 874.0	22697
 874.4	22542
 874.9	22564
 875.3	22495
 875.8	22383
 876.2	22141
 876.7	21979
 877.2	21643
 877.6	21267
 878.1	20939
