#xlabel Wavelength (nm)
#ylabel Spectrometer Array Counts
#title Exposure time is 12000 ms
## lambda	counts
 349.8	20821
 350.3	21071
 350.8	21325
 351.3	21556
 351.9	21696
 352.4	21847
 352.9	21952
 353.4	21945
 354.0	21970
 354.5	22046
 355.0	22061
 355.5	22097
 356.0	22057
 356.6	22022
 357.1	22077
 357.6	22050
 358.1	22091
 358.7	22027
 359.2	22051
 359.7	22069
 360.2	22117
 360.8	22082
 361.3	22186
 361.8	22129
 362.3	22168
 362.9	22126
 363.4	22207
 363.9	22214
 364.4	22251
 364.9	22155
 365.5	22237
 366.0	22224
 366.5	22174
 367.0	22228
 367.6	22255
 368.1	22263
 368.6	22196
 369.1	22257
 369.7	22319
 370.2	22231
 370.7	22241
 371.2	22299
 371.8	22363
 372.3	22277
 372.8	22371
 373.3	22393
 373.9	22333
 374.4	22355
 374.9	22411
 375.5	22297
 376.0	22444
 376.5	22400
 377.0	22443
 377.6	22396
 378.1	22487
 378.6	22417
 379.1	22442
 379.7	22421
 380.2	22514
 380.7	22519
 381.2	22481
 381.8	22479
 382.3	22523
 382.8	22505
 383.4	22561
 383.9	22514
 384.4	22690
 384.9	22581
 385.5	22601
 386.0	22615
 386.5	22692
 387.1	22626
 387.6	22651
 388.1	22645
 388.6	22675
 389.2	22669
 389.7	22699
 390.2	22691
 390.8	22807
 391.3	22786
 391.8	22788
 392.3	22780
 392.9	22780
 393.4	22790
 393.9	22881
 394.5	22894
 395.0	22843
 395.5	22889
 396.0	22892
 396.6	22861
 397.1	22976
 397.6	22983
 398.2	22981
 398.7	22980
 399.2	23094
 399.8	22955
 400.3	23025
 400.8	23081
 401.3	23051
 401.9	23065
 402.4	23100
 402.9	23089
 403.5	23135
 404.0	23118
 404.5	23075
 405.1	23095
 405.6	23215
 406.1	23199
 406.7	23217
 407.2	23233
 407.7	23336
 408.2	23340
 408.8	23356
 409.3	23397
 409.8	23459
 410.4	23434
 410.9	23456
 411.4	23401
 412.0	23490
 412.5	23550
 413.0	23504
 413.6	23556
 414.1	23529
 414.6	23561
 415.2	23623
 415.7	23571
 416.2	23627
 416.8	23616
 417.3	23615
 417.8	23638
 418.4	23758
 418.9	23695
 419.4	23851
 420.0	23728
 420.5	23807
 421.0	23746
 421.5	23855
 422.1	23824
 422.6	23895
 423.1	23927
 423.7	23899
 424.2	23889
 424.7	23932
 425.3	23913
 425.8	23938
 426.3	23934
 426.9	24007
 427.4	23935
 427.9	24082
 428.5	24019
 429.0	24078
 429.6	24043
 430.1	24154
 430.6	24175
 431.2	24121
 431.7	24252
 432.2	24239
 432.8	24233
 433.3	24379
 433.8	24405
 434.4	24393
 434.9	24430
 435.4	24506
 436.0	24499
 436.5	24513
 437.0	24602
 437.6	24583
 438.1	24652
 438.6	24670
 439.2	24693
 439.7	24694
 440.2	24631
 440.8	24669
 441.3	24671
 441.8	24672
 442.4	24626
 442.9	24663
 443.5	24713
 444.0	24701
 444.5	24727
 445.1	24627
 445.6	24682
 446.1	24710
 446.7	24748
 447.2	24782
 447.7	24785
 448.3	24877
 448.8	24864
 449.3	24919
 449.9	24882
 450.4	25037
 450.9	25103
 451.5	25141
 452.0	25145
 452.6	25190
 453.1	25302
 453.6	25333
 454.2	25237
 454.7	25349
 455.2	25401
 455.8	25477
 456.3	25436
 456.8	25584
 457.4	25524
 457.9	25537
 458.5	25594
 459.0	25558
 459.5	25613
 460.1	25559
 460.6	25610
 461.1	25603
 461.7	25649
 462.2	25599
 462.7	25638
 463.3	25557
 463.8	25638
 464.4	25709
 464.9	25649
 465.4	25740
 466.0	25647
 466.5	25738
 467.0	25673
 467.6	25757
 468.1	25879
 468.7	25827
 469.2	25758
 469.7	25893
 470.3	25891
 470.8	25956
 471.3	25961
 471.9	25939
 472.4	26018
 473.0	26086
 473.5	26133
 474.0	26147
 474.6	26170
 475.1	26191
 475.6	26287
 476.2	26323
 476.7	26307
 477.3	26387
 477.8	26337
 478.3	26270
 478.9	26509
 479.4	26411
 479.9	26444
 480.5	26449
 481.0	26493
 481.6	26539
 482.1	26637
 482.6	26623
 483.2	26671
 483.7	26802
 484.2	26772
 484.8	26613
 485.3	26736
 485.9	26831
 486.4	26815
 486.9	26867
 487.5	26824
 488.0	26855
 488.6	26943
 489.1	26978
 489.6	27045
 490.2	27046
 490.7	27023
 491.2	26987
 491.8	27068
 492.3	27011
 492.9	27071
 493.4	27082
 493.9	27104
 494.5	27099
 495.0	27162
 495.6	27079
 496.1	27084
 496.6	27144
 497.2	27044
 497.7	27007
 498.2	27104
 498.8	27105
 499.3	27022
 499.9	27082
 500.4	27088
 500.9	27079
 501.5	27087
 502.0	27183
 502.6	27178
 503.1	27300
 503.6	27287
 504.2	27272
 504.7	27309
 505.2	27406
 505.8	27434
 506.3	27576
 506.9	27634
 507.4	27643
 507.9	27663
 508.5	27747
 509.0	27845
 509.6	27975
 510.1	27978
 510.6	28068
 511.2	28124
 511.7	28153
 512.2	28262
 512.8	28323
 513.3	28315
 513.9	28326
 514.4	28413
 514.9	28523
 515.5	28413
 516.0	28506
 516.6	28455
 517.1	28511
 517.6	28473
 518.2	28434
 518.7	28354
 519.3	28399
 519.8	28402
 520.3	28366
 520.9	28306
 521.4	28287
 521.9	28331
 522.5	28214
 523.0	28205
 523.6	28234
 524.1	28059
 524.6	28105
 525.2	28127
 525.7	28173
 526.3	28106
 526.8	28209
 527.3	28155
 527.9	28209
 528.4	28203
 528.9	28283
 529.5	28327
 530.0	28353
 530.6	28439
 531.1	28471
 531.6	28419
 532.2	28579
 532.7	28595
 533.3	28678
 533.8	28855
 534.3	28945
 534.9	28989
 535.4	28983
 536.0	29111
 536.5	29190
 537.0	29205
 537.6	29274
 538.1	29363
 538.6	29428
 539.2	29398
 539.7	29464
 540.3	29595
 540.8	29577
 541.3	29555
 541.9	29614
 542.4	29620
 543.0	29708
 543.5	29679
 544.0	29643
 544.6	29686
 545.1	29708
 545.6	29727
 546.2	29707
 546.7	29601
 547.3	29670
 547.8	29634
 548.3	29676
 548.9	29565
 549.4	29557
 550.0	29519
 550.5	29585
 551.0	29618
 551.6	29559
 552.1	29564
 552.6	29570
 553.2	29508
 553.7	29491
 554.3	29525
 554.8	29609
 555.3	29447
 555.9	29517
 556.4	29495
 556.9	29621
 557.5	29651
 558.0	29626
 558.6	29613
 559.1	29694
 559.6	29694
 560.2	29721
 560.7	29747
 561.3	29727
 561.8	29712
 562.3	29867
 562.9	29862
 563.4	29915
 563.9	29916
 564.5	29947
 565.0	29941
 565.6	29969
 566.1	29982
 566.6	29991
 567.2	29986
 567.7	30095
 568.2	30023
 568.8	30031
 569.3	30014
 569.9	30083
 570.4	30063
 570.9	30041
 571.5	30049
 572.0	30055
 572.5	30113
 573.1	30066
 573.6	30136
 574.1	30137
 574.7	30147
 575.2	30127
 575.8	30193
 576.3	30291
 576.8	30263
 577.4	30295
 577.9	30331
 578.4	30319
 579.0	30350
 579.5	30487
 580.1	30419
 580.6	30460
 581.1	30566
 581.7	30620
 582.2	30571
 582.7	30639
 583.3	30703
 583.8	30697
 584.3	30660
 584.9	30740
 585.4	30753
 586.0	30749
 586.5	30799
 587.0	30786
 587.6	30882
 588.1	30845
 588.6	30914
 589.2	30874
 589.7	30893
 590.2	30899
 590.8	30879
 591.3	30905
 591.9	30841
 592.4	30899
 592.9	30815
 593.5	30787
 594.0	30771
 594.5	30767
 595.1	30721
 595.6	30662
 596.1	30706
 596.7	30667
 597.2	30676
 597.7	30583
 598.3	30593
 598.8	30543
 599.3	30525
 599.9	30466
 600.4	30446
 601.0	30441
 601.5	30424
 602.0	30386
 602.6	30335
 603.1	30349
 603.6	30362
 604.2	30465
 604.7	30374
 605.2	30456
 605.8	30365
 606.3	30399
 606.8	30484
 607.4	30491
 607.9	30557
 608.4	30512
 609.0	30574
 609.5	30632
 610.0	30623
 610.6	30745
 611.1	30694
 611.6	30754
 612.2	30784
 612.7	30871
 613.2	30903
 613.8	30856
 614.3	30925
 614.8	31000
 615.4	30982
 615.9	31124
 616.4	31224
 617.0	31203
 617.5	31337
 618.0	31402
 618.6	31385
 619.1	31471
 619.6	31583
 620.2	31659
 620.7	31779
 621.2	31793
 621.8	31871
 622.3	31943
 622.8	31967
 623.4	32035
 623.9	32127
 624.4	32131
 625.0	32156
 625.5	32158
 626.0	32185
 626.6	32246
 627.1	32233
 627.6	32173
 628.2	32143
 628.7	32181
 629.2	32167
 629.8	32179
 630.3	32157
 630.8	32130
 631.4	32078
 631.9	32074
 632.4	31919
 632.9	31911
 633.5	31877
 634.0	31810
 634.5	31825
 635.1	31731
 635.6	31694
 636.1	31644
 636.7	31631
 637.2	31607
 637.7	31471
 638.3	31549
 638.8	31500
 639.3	31503
 639.8	31404
 640.4	31399
 640.9	31406
 641.4	31299
 642.0	31263
 642.5	31267
 643.0	31229
 643.6	31316
 644.1	31263
 644.6	31277
 645.1	31295
 645.7	31287
 646.2	31238
 646.7	31263
 647.3	31293
 647.8	31313
 648.3	31288
 648.9	31346
 649.4	31258
 649.9	31349
 650.4	31379
 651.0	31445
 651.5	31465
 652.0	31548
 652.6	31519
 653.1	31624
 653.6	31557
 654.1	31639
 654.7	31624
 655.2	31738
 655.7	31798
 656.3	31833
 656.8	31810
 657.3	31882
 657.8	31845
 658.4	31884
 658.9	31925
 659.4	32013
 659.9	32026
 660.5	32010
 661.0	32065
 661.5	32120
 662.1	32095
 662.6	32120
 663.1	32083
 663.6	32185
 664.2	32126
 664.7	32113
 665.2	32044
 665.7	32168
 666.3	32113
 666.8	32116
 667.3	32117
 667.8	32081
 668.4	32097
 668.9	32103
 669.4	32066
 669.9	32085
 670.5	32003
 671.0	32022
 671.5	31966
 672.0	31999
 672.6	31988
 673.1	32019
 673.6	31909
 674.1	31927
 674.7	31913
 675.2	31945
 675.7	31795
 676.2	31771
 676.8	31837
 677.3	31835
 677.8	31749
 678.3	31844
 678.9	31763
 679.4	31689
 679.9	31758
 680.4	31731
 681.0	31691
 681.5	31711
 682.0	31663
 682.5	31695
 683.1	31593
 683.6	31615
 684.1	31557
 684.6	31661
 685.1	31595
 685.7	31610
 686.2	31589
 686.7	31546
 687.2	31528
 687.8	31599
 688.3	31537
 688.8	31555
 689.3	31492
 689.8	31526
 690.4	31516
 690.9	31529
 691.4	31551
 691.9	31555
 692.4	31528
 693.0	31606
 693.5	31565
 694.0	31563
 694.5	31554
 695.1	31530
 695.6	31482
 696.1	31565
 696.6	31551
 697.1	31575
 697.7	31599
 698.2	31522
 698.7	31558
 699.2	31517
 699.7	31531
 700.3	31479
 700.8	31447
 701.3	31551
 701.8	31509
 702.3	31449
 702.8	31447
 703.4	31419
 703.9	31403
 704.4	31370
 704.9	31339
 705.4	31330
 706.0	31387
 706.5	31363
 707.0	31267
 707.5	31238
 708.0	31251
 708.5	31180
 709.1	31235
 709.6	31179
 710.1	31111
 710.6	31070
 711.1	31035
 711.7	31039
 712.2	30995
 712.7	30994
 713.2	30933
 713.7	30920
 714.2	30837
 714.8	30901
 715.3	30811
 715.8	30787
 716.3	30761
 716.8	30657
 717.3	30622
 717.8	30702
 718.4	30707
 718.9	30621
 719.4	30717
 719.9	30599
 720.4	30651
 720.9	30672
 721.4	30662
 722.0	30697
 722.5	30686
 723.0	30693
 723.5	30719
 724.0	30698
 724.5	30695
 725.0	30749
 725.6	30691
 726.1	30769
 726.6	30900
 727.1	30845
 727.6	30906
 728.1	30948
 728.6	30905
 729.1	30920
 729.7	30911
 730.2	30951
 730.7	30991
 731.2	31035
 731.7	31035
 732.2	31059
 732.7	31029
 733.2	31090
 733.8	31063
 734.3	31103
 734.8	31092
 735.3	31131
 735.8	31135
 736.3	31120
 736.8	31181
 737.3	31248
 737.8	31195
 738.4	31202
 738.9	31163
 739.4	31265
 739.9	31259
 740.4	31287
 740.9	31253
 741.4	31263
 741.9	31254
 742.4	31279
 742.9	31265
 743.4	31351
 744.0	31254
 744.5	31251
 745.0	31250
 745.5	31337
 746.0	31295
 746.5	31309
 747.0	31233
 747.5	31208
 748.0	31181
 748.5	31196
 749.0	31191
 749.5	31279
 750.0	31101
 750.5	31139
 751.1	31121
 751.6	31114
 752.1	31083
 752.6	31036
 753.1	31071
 753.6	30981
 754.1	30941
 754.6	30968
 755.1	30902
 755.6	30894
 756.1	30782
 756.6	30865
 757.1	30817
 757.6	30787
 758.1	30725
 758.6	30707
 759.1	30609
 759.6	30630
 760.1	30555
 760.7	30479
 761.2	30547
 761.7	30477
 762.2	30434
 762.7	30449
 763.2	30307
 763.7	30368
 764.2	30266
 764.7	30244
 765.2	30253
 765.7	30185
 766.2	30126
 766.7	30138
 767.2	30057
 767.7	30039
 768.2	30004
 768.7	29945
 769.2	29893
 769.7	29919
 770.2	29872
 770.7	29854
 771.2	29797
 771.7	29770
 772.2	29763
 772.7	29801
 773.2	29757
 773.7	29687
 774.2	29623
 774.7	29657
 775.2	29618
 775.7	29592
 776.2	29567
 776.7	29589
 777.2	29499
 777.7	29567
 778.2	29533
 778.7	29571
 779.2	29563
 779.7	29593
 780.2	29408
 780.7	29473
 781.2	29464
 781.7	29521
 782.2	29436
 782.6	29508
 783.1	29505
 783.6	29464
 784.1	29409
 784.6	29403
 785.1	29404
 785.6	29399
 786.1	29414
 786.6	29439
 787.1	29369
 787.6	29354
 788.1	29336
 788.6	29322
 789.1	29294
 789.6	29309
 790.1	29325
 790.6	29311
 791.1	29194
 791.6	29193
 792.0	29185
 792.5	29211
 793.0	29170
 793.5	29154
 794.0	29082
 794.5	29145
 795.0	29086
 795.5	29055
 796.0	29043
 796.5	28955
 797.0	28965
 797.5	28988
 798.0	28797
 798.4	28806
 798.9	28767
 799.4	28760
 799.9	28737
 800.4	28559
 800.9	28646
 801.4	28665
 801.9	28596
 802.4	28483
 802.9	28509
 803.3	28483
 803.8	28407
 804.3	28326
 804.8	28356
 805.3	28285
 805.8	28223
 806.3	28183
 806.8	28136
 807.2	28096
 807.7	28041
 808.2	28026
 808.7	27919
 809.2	27892
 809.7	27795
 810.2	27839
 810.7	27734
 811.1	27717
 811.6	27702
 812.1	27610
 812.6	27537
 813.1	27561
 813.6	27550
 814.1	27509
 814.5	27440
 815.0	27441
 815.5	27362
 816.0	27299
 816.5	27335
 817.0	27258
 817.4	27223
 817.9	27239
 818.4	27131
 818.9	27206
 819.4	27143
 819.9	27092
 820.3	27039
 820.8	27019
 821.3	27019
 821.8	26992
 822.3	26915
 822.7	26881
 823.2	26935
 823.7	26864
 824.2	26855
 824.7	26817
 825.2	26817
 825.6	26776
 826.1	26754
 826.6	26801
 827.1	26764
 827.6	26749
 828.0	26670
 828.5	26635
 829.0	26669
 829.5	26589
 829.9	26581
 830.4	26639
 830.9	26605
 831.4	26622
 831.9	26558
 832.3	26619
 832.8	26559
 833.3	26548
 833.8	26628
 834.2	26610
 834.7	26431
 835.2	26521
 835.7	26510
 836.1	26513
 836.6	26479
 837.1	26469
 837.6	26467
 838.0	26496
 838.5	26508
 839.0	26507
 839.5	26493
 839.9	26396
 840.4	26395
 840.9	26356
 841.4	26393
 841.8	26414
 842.3	26415
 842.8	26425
 843.3	26407
 843.7	26291
 844.2	26281
 844.7	26357
 845.1	26321
 845.6	26223
 846.1	26240
 846.6	26269
 847.0	26155
 847.5	26193
 848.0	26163
 848.4	26190
 848.9	26141
 849.4	26105
 849.8	26116
 850.3	26113
 850.8	26153
 851.3	26091
 851.7	26071
 852.2	26067
 852.7	26046
 853.1	26025
 853.6	25945
 854.1	25980
 854.5	25921
 855.0	25900
 855.5	25873
 855.9	25928
 856.4	25889
 856.9	25799
 857.3	25838
 857.8	25784
 858.3	25793
 858.7	25732
 859.2	25753
 859.7	25737
 860.1	25783
 860.6	25739
 861.1	25657
 861.5	25686
 862.0	25664
 862.4	25625
 862.9	25559
 863.4	25584
 863.8	25576
 864.3	25554
 864.8	25450
 865.2	25473
 865.7	25471
 866.1	25483
 866.6	25373
 867.1	25443
 867.5	25413
 868.0	25385
 868.5	25320
 868.9	25303
 869.4	25395
 869.8	25347
 870.3	25291
 870.8	25357
 871.2	25303
 871.7	25294
 872.1	25229
 872.6	25271
 873.0	25224
 873.5	25298
 874.0	25259
 874.4	25097
 874.9	25091
 875.3	25010
 875.8	24867
 876.2	24603
 876.7	24415
 877.2	24039
 877.6	23615
 878.1	23227
