#xlabel Wavelength (nm)
#ylabel Spectrometer Array Counts
#title Exposure time is 12000 ms
## lambda	counts
 349.8	20706
 350.3	21013
 350.8	21303
 351.3	21534
 351.9	21676
 352.4	21808
 352.9	21882
 353.4	21845
 354.0	21841
 354.5	21884
 355.0	21884
 355.5	21898
 356.0	21849
 356.6	21801
 357.1	21844
 357.6	21822
 358.1	21859
 358.7	21788
 359.2	21811
 359.7	21828
 360.2	21871
 360.8	21828
 361.3	21927
 361.8	21867
 362.3	21899
 362.9	21853
 363.4	21934
 363.9	21930
 364.4	21967
 364.9	21859
 365.5	21945
 366.0	21918
 366.5	21869
 367.0	21921
 367.6	21939
 368.1	21941
 368.6	21868
 369.1	21928
 369.7	21985
 370.2	21897
 370.7	21893
 371.2	21939
 371.8	21997
 372.3	21907
 372.8	21988
 373.3	22003
 373.9	21931
 374.4	21953
 374.9	22005
 375.5	21879
 376.0	22016
 376.5	21966
 377.0	21995
 377.6	21937
 378.1	22016
 378.6	21937
 379.1	21948
 379.7	21918
 380.2	22005
 380.7	22002
 381.2	21949
 381.8	21939
 382.3	21971
 382.8	21945
 383.4	22003
 383.9	21941
 384.4	22111
 384.9	22003
 385.5	22013
 386.0	22025
 386.5	22091
 387.1	22021
 387.6	22037
 388.1	22030
 388.6	22049
 389.2	22033
 389.7	22053
 390.2	22026
 390.8	22129
 391.3	22085
 391.8	22074
 392.3	22047
 392.9	22031
 393.4	22026
 393.9	22102
 394.5	22097
 395.0	22030
 395.5	22055
 396.0	22044
 396.6	22006
 397.1	22108
 397.6	22103
 398.2	22099
 398.7	22094
 399.2	22201
 399.8	22062
 400.3	22129
 400.8	22174
 401.3	22138
 401.9	22151
 402.4	22177
 402.9	22153
 403.5	22181
 404.0	22161
 404.5	22097
 405.1	22110
 405.6	22210
 406.1	22173
 406.7	22171
 407.2	22175
 407.7	22256
 408.2	22244
 408.8	22248
 409.3	22268
 409.8	22313
 410.4	22269
 410.9	22269
 411.4	22200
 412.0	22279
 412.5	22324
 413.0	22262
 413.6	22307
 414.1	22261
 414.6	22280
 415.2	22330
 415.7	22265
 416.2	22309
 416.8	22283
 417.3	22267
 417.8	22283
 418.4	22382
 418.9	22304
 419.4	22455
 420.0	22318
 420.5	22389
 421.0	22317
 421.5	22406
 422.1	22367
 422.6	22431
 423.1	22455
 423.7	22417
 424.2	22393
 424.7	22426
 425.3	22403
 425.8	22419
 426.3	22403
 426.9	22470
 427.4	22395
 427.9	22521
 428.5	22450
 429.0	22489
 429.6	22439
 430.1	22524
 430.6	22509
 431.2	22431
 431.7	22542
 432.2	22495
 432.8	22468
 433.3	22577
 433.8	22583
 434.4	22534
 434.9	22541
 435.4	22601
 436.0	22562
 436.5	22565
 437.0	22631
 437.6	22594
 438.1	22654
 438.6	22661
 439.2	22682
 439.7	22673
 440.2	22604
 440.8	22638
 441.3	22647
 441.8	22638
 442.4	22602
 442.9	22635
 443.5	22689
 444.0	22671
 444.5	22699
 445.1	22594
 445.6	22630
 446.1	22653
 446.7	22675
 447.2	22693
 447.7	22673
 448.3	22743
 448.8	22695
 449.3	22731
 449.9	22663
 450.4	22777
 450.9	22807
 451.5	22809
 452.0	22768
 452.6	22781
 453.1	22848
 453.6	22848
 454.2	22711
 454.7	22794
 455.2	22813
 455.8	22868
 456.3	22802
 456.8	22945
 457.4	22854
 457.9	22861
 458.5	22911
 459.0	22867
 459.5	22915
 460.1	22852
 460.6	22911
 461.1	22894
 461.7	22946
 462.2	22901
 462.7	22943
 463.3	22859
 463.8	22935
 464.4	23009
 464.9	22939
 465.4	23018
 466.0	22902
 466.5	22986
 467.0	22911
 467.6	22975
 468.1	23086
 468.7	23001
 469.2	22913
 469.7	23025
 470.3	22997
 470.8	23041
 471.3	23017
 471.9	22966
 472.4	23025
 473.0	23064
 473.5	23094
 474.0	23076
 474.6	23078
 475.1	23079
 475.6	23161
 476.2	23170
 476.7	23140
 477.3	23201
 477.8	23134
 478.3	23053
 478.9	23283
 479.4	23153
 479.9	23168
 480.5	23148
 481.0	23175
 481.6	23199
 482.1	23269
 482.6	23237
 483.2	23256
 483.7	23374
 484.2	23312
 484.8	23131
 485.3	23237
 485.9	23319
 486.4	23274
 486.9	23300
 487.5	23246
 488.0	23259
 488.6	23330
 489.1	23343
 489.6	23402
 490.2	23393
 490.7	23344
 491.2	23314
 491.8	23380
 492.3	23327
 492.9	23382
 493.4	23385
 493.9	23411
 494.5	23414
 495.0	23479
 495.6	23398
 496.1	23411
 496.6	23477
 497.2	23381
 497.7	23346
 498.2	23450
 498.8	23471
 499.3	23376
 499.9	23442
 500.4	23437
 500.9	23418
 501.5	23409
 502.0	23493
 502.6	23460
 503.1	23562
 503.6	23519
 504.2	23471
 504.7	23480
 505.2	23550
 505.8	23532
 506.3	23631
 506.9	23645
 507.4	23595
 507.9	23568
 508.5	23615
 509.0	23663
 509.6	23739
 510.1	23707
 510.6	23740
 511.2	23771
 511.7	23751
 512.2	23833
 512.8	23857
 513.3	23821
 513.9	23798
 514.4	23877
 514.9	23963
 515.5	23845
 516.0	23936
 516.6	23887
 517.1	23957
 517.6	23933
 518.2	23907
 518.7	23839
 519.3	23908
 519.8	23948
 520.3	23939
 520.9	23891
 521.4	23894
 521.9	23965
 522.5	23871
 523.0	23895
 523.6	23940
 524.1	23775
 524.6	23835
 525.2	23860
 525.7	23900
 526.3	23817
 526.8	23920
 527.3	23859
 527.9	23889
 528.4	23869
 528.9	23934
 529.5	23954
 530.0	23945
 530.6	24001
 531.1	24008
 531.6	23906
 532.2	24046
 532.7	24007
 533.3	24053
 533.8	24193
 534.3	24235
 534.9	24228
 535.4	24169
 536.0	24256
 536.5	24308
 537.0	24269
 537.6	24302
 538.1	24360
 538.6	24390
 539.2	24321
 539.7	24345
 540.3	24469
 540.8	24425
 541.3	24383
 541.9	24417
 542.4	24423
 543.0	24497
 543.5	24458
 544.0	24428
 544.6	24479
 545.1	24492
 545.6	24535
 546.2	24517
 546.7	24415
 547.3	24487
 547.8	24465
 548.3	24519
 548.9	24421
 549.4	24420
 550.0	24390
 550.5	24467
 551.0	24516
 551.6	24456
 552.1	24483
 552.6	24490
 553.2	24447
 553.7	24426
 554.3	24471
 554.8	24548
 555.3	24382
 555.9	24457
 556.4	24421
 556.9	24542
 557.5	24569
 558.0	24525
 558.6	24499
 559.1	24571
 559.6	24561
 560.2	24566
 560.7	24569
 561.3	24537
 561.8	24511
 562.3	24647
 562.9	24631
 563.4	24671
 563.9	24654
 564.5	24674
 565.0	24666
 565.6	24687
 566.1	24685
 566.6	24690
 567.2	24678
 567.7	24795
 568.2	24695
 568.8	24719
 569.3	24688
 569.9	24764
 570.4	24745
 570.9	24721
 571.5	24719
 572.0	24712
 572.5	24775
 573.1	24720
 573.6	24783
 574.1	24770
 574.7	24768
 575.2	24739
 575.8	24788
 576.3	24874
 576.8	24833
 577.4	24848
 577.9	24874
 578.4	24826
 579.0	24838
 579.5	24965
 580.1	24871
 580.6	24889
 581.1	24983
 581.7	25003
 582.2	24936
 582.7	24983
 583.3	25039
 583.8	25009
 584.3	24957
 584.9	25027
 585.4	25029
 586.0	25001
 586.5	25035
 587.0	25007
 587.6	25097
 588.1	25045
 588.6	25128
 589.2	25066
 589.7	25090
 590.2	25077
 590.8	25073
 591.3	25101
 591.9	25043
 592.4	25116
 592.9	25045
 593.5	25031
 594.0	25029
 594.5	25048
 595.1	25031
 595.6	25001
 596.1	25068
 596.7	25031
 597.2	25078
 597.7	25003
 598.3	25014
 598.8	24990
 599.3	24998
 599.9	24968
 600.4	24967
 601.0	24973
 601.5	24964
 602.0	24955
 602.6	24891
 603.1	24920
 603.6	24921
 604.2	25039
 604.7	24933
 605.2	25015
 605.8	24919
 606.3	24945
 606.8	25027
 607.4	25007
 607.9	25055
 608.4	25001
 609.0	25036
 609.5	25088
 610.0	25067
 610.6	25173
 611.1	25083
 611.6	25123
 612.2	25127
 612.7	25205
 613.2	25191
 613.8	25123
 614.3	25163
 614.8	25220
 615.4	25149
 615.9	25257
 616.4	25323
 617.0	25269
 617.5	25379
 618.0	25402
 618.6	25331
 619.1	25370
 619.6	25459
 620.2	25468
 620.7	25546
 621.2	25510
 621.8	25554
 622.3	25601
 622.8	25560
 623.4	25607
 623.9	25671
 624.4	25659
 625.0	25656
 625.5	25661
 626.0	25678
 626.6	25745
 627.1	25733
 627.6	25679
 628.2	25647
 628.7	25686
 629.2	25672
 629.8	25711
 630.3	25707
 630.8	25697
 631.4	25678
 631.9	25698
 632.4	25579
 632.9	25601
 633.5	25599
 634.0	25552
 634.5	25628
 635.1	25556
 635.6	25536
 636.1	25519
 636.7	25567
 637.2	25565
 637.7	25459
 638.3	25565
 638.8	25552
 639.3	25571
 639.8	25503
 640.4	25519
 640.9	25545
 641.4	25446
 642.0	25435
 642.5	25458
 643.0	25423
 643.6	25523
 644.1	25479
 644.6	25490
 645.1	25531
 645.7	25507
 646.2	25467
 646.7	25492
 647.3	25526
 647.8	25542
 648.3	25519
 648.9	25554
 649.4	25456
 649.9	25541
 650.4	25560
 651.0	25612
 651.5	25623
 652.0	25689
 652.6	25631
 653.1	25724
 653.6	25629
 654.1	25718
 654.7	25671
 655.2	25767
 655.7	25808
 656.3	25829
 656.8	25771
 657.3	25835
 657.8	25779
 658.4	25787
 658.9	25799
 659.4	25885
 659.9	25887
 660.5	25862
 661.0	25917
 661.5	25967
 662.1	25932
 662.6	25946
 663.1	25907
 663.6	25997
 664.2	25946
 664.7	25920
 665.2	25845
 665.7	25991
 666.3	25937
 666.8	25953
 667.3	25958
 667.8	25917
 668.4	25951
 668.9	25970
 669.4	25946
 669.9	25981
 670.5	25910
 671.0	25929
 671.5	25882
 672.0	25947
 672.6	25946
 673.1	25984
 673.6	25887
 674.1	25923
 674.7	25922
 675.2	25969
 675.7	25816
 676.2	25816
 676.8	25896
 677.3	25908
 677.8	25825
 678.3	25953
 678.9	25881
 679.4	25821
 679.9	25897
 680.4	25899
 681.0	25861
 681.5	25906
 682.0	25866
 682.5	25905
 683.1	25807
 683.6	25860
 684.1	25797
 684.6	25915
 685.1	25854
 685.7	25875
 686.2	25857
 686.7	25811
 687.2	25803
 687.8	25890
 688.3	25823
 688.8	25853
 689.3	25793
 689.8	25833
 690.4	25821
 690.9	25835
 691.4	25846
 691.9	25869
 692.4	25830
 693.0	25908
 693.5	25883
 694.0	25865
 694.5	25862
 695.1	25838
 695.6	25796
 696.1	25881
 696.6	25865
 697.1	25892
 697.7	25921
 698.2	25838
 698.7	25881
 699.2	25837
 699.7	25857
 700.3	25829
 700.8	25803
 701.3	25918
 701.8	25881
 702.3	25825
 702.8	25834
 703.4	25807
 703.9	25817
 704.4	25811
 704.9	25782
 705.4	25782
 706.0	25883
 706.5	25871
 707.0	25775
 707.5	25765
 708.0	25797
 708.5	25748
 709.1	25820
 709.6	25779
 710.1	25736
 710.6	25714
 711.1	25702
 711.7	25726
 712.2	25715
 712.7	25726
 713.2	25700
 713.7	25700
 714.2	25635
 714.8	25727
 715.3	25659
 715.8	25653
 716.3	25650
 716.8	25553
 717.3	25538
 717.8	25648
 718.4	25660
 718.9	25579
 719.4	25683
 719.9	25574
 720.4	25626
 720.9	25639
 721.4	25630
 722.0	25663
 722.5	25645
 723.0	25637
 723.5	25664
 724.0	25627
 724.5	25613
 725.0	25657
 725.6	25590
 726.1	25654
 726.6	25788
 727.1	25720
 727.6	25771
 728.1	25801
 728.6	25753
 729.1	25755
 729.7	25745
 730.2	25779
 730.7	25815
 731.2	25861
 731.7	25847
 732.2	25869
 732.7	25849
 733.2	25898
 733.8	25873
 734.3	25898
 734.8	25871
 735.3	25903
 735.8	25895
 736.3	25865
 736.8	25916
 737.3	25969
 737.8	25910
 738.4	25907
 738.9	25861
 739.4	25962
 739.9	25949
 740.4	25963
 740.9	25941
 741.4	25949
 741.9	25947
 742.4	25971
 742.9	25953
 743.4	26057
 744.0	25964
 744.5	25957
 745.0	25973
 745.5	26067
 746.0	26037
 746.5	26057
 747.0	25979
 747.5	25975
 748.0	25947
 748.5	25969
 749.0	25975
 749.5	26085
 750.0	25903
 750.5	25965
 751.1	25972
 751.6	25980
 752.1	25967
 752.6	25927
 753.1	25965
 753.6	25895
 754.1	25863
 754.6	25910
 755.1	25863
 755.6	25879
 756.1	25787
 756.6	25891
 757.1	25851
 757.6	25838
 758.1	25804
 758.6	25814
 759.1	25734
 759.6	25783
 760.1	25721
 760.7	25680
 761.2	25763
 761.7	25703
 762.2	25678
 762.7	25732
 763.2	25585
 763.7	25679
 764.2	25597
 764.7	25605
 765.2	25636
 765.7	25595
 766.2	25554
 766.7	25604
 767.2	25542
 767.7	25552
 768.2	25530
 768.7	25493
 769.2	25474
 769.7	25526
 770.2	25502
 770.7	25491
 771.2	25461
 771.7	25447
 772.2	25455
 772.7	25511
 773.2	25480
 773.7	25433
 774.2	25368
 774.7	25424
 775.2	25407
 775.7	25387
 776.2	25375
 776.7	25411
 777.2	25323
 777.7	25414
 778.2	25384
 778.7	25431
 779.2	25439
 779.7	25477
 780.2	25296
 780.7	25375
 781.2	25378
 781.7	25458
 782.2	25367
 782.6	25451
 783.1	25459
 783.6	25413
 784.1	25378
 784.6	25368
 785.1	25381
 785.6	25379
 786.1	25415
 786.6	25436
 787.1	25367
 787.6	25375
 788.1	25360
 788.6	25355
 789.1	25338
 789.6	25377
 790.1	25402
 790.6	25399
 791.1	25290
 791.6	25301
 792.0	25311
 792.5	25359
 793.0	25326
 793.5	25329
 794.0	25263
 794.5	25362
 795.0	25319
 795.5	25296
 796.0	25309
 796.5	25238
 797.0	25267
 797.5	25319
 798.0	25143
 798.4	25185
 798.9	25168
 799.4	25180
 799.9	25185
 800.4	25033
 800.9	25139
 801.4	25202
 801.9	25160
 802.4	25065
 802.9	25133
 803.3	25126
 803.8	25083
 804.3	25019
 804.8	25077
 805.3	25024
 805.8	24998
 806.3	24990
 806.8	24969
 807.2	24958
 807.7	24927
 808.2	24943
 808.7	24852
 809.2	24851
 809.7	24781
 810.2	24850
 810.7	24767
 811.1	24784
 811.6	24789
 812.1	24724
 812.6	24671
 813.1	24723
 813.6	24733
 814.1	24708
 814.5	24656
 815.0	24683
 815.5	24627
 816.0	24579
 816.5	24637
 817.0	24584
 817.4	24559
 817.9	24597
 818.4	24518
 818.9	24606
 819.4	24556
 819.9	24527
 820.3	24487
 820.8	24485
 821.3	24499
 821.8	24487
 822.3	24432
 822.7	24407
 823.2	24477
 823.7	24419
 824.2	24419
 824.7	24388
 825.2	24414
 825.6	24391
 826.1	24365
 826.6	24431
 827.1	24408
 827.6	24403
 828.0	24329
 828.5	24298
 829.0	24346
 829.5	24282
 829.9	24283
 830.4	24353
 830.9	24324
 831.4	24355
 831.9	24303
 832.3	24385
 832.8	24322
 833.3	24324
 833.8	24407
 834.2	24401
 834.7	24223
 835.2	24328
 835.7	24323
 836.1	24325
 836.6	24304
 837.1	24302
 837.6	24305
 838.0	24343
 838.5	24370
 839.0	24370
 839.5	24363
 839.9	24271
 840.4	24284
 840.9	24241
 841.4	24282
 841.8	24311
 842.3	24325
 842.8	24343
 843.3	24339
 843.7	24233
 844.2	24222
 844.7	24312
 845.1	24278
 845.6	24187
 846.1	24211
 846.6	24247
 847.0	24129
 847.5	24190
 848.0	24165
 848.4	24211
 848.9	24158
 849.4	24146
 849.8	24167
 850.3	24173
 850.8	24211
 851.3	24166
 851.7	24162
 852.2	24166
 852.7	24153
 853.1	24131
 853.6	24069
 854.1	24111
 854.5	24070
 855.0	24057
 855.5	24041
 855.9	24105
 856.4	24083
 856.9	23994
 857.3	24050
 857.8	24014
 858.3	24047
 858.7	23990
 859.2	24023
 859.7	24007
 860.1	24074
 860.6	24038
 861.1	23967
 861.5	24012
 862.0	24003
 862.4	23977
 862.9	23929
 863.4	23960
 863.8	23962
 864.3	23958
 864.8	23869
 865.2	23909
 865.7	23924
 866.1	23939
 866.6	23843
 867.1	23922
 867.5	23900
 868.0	23880
 868.5	23819
 868.9	23817
 869.4	23922
 869.8	23873
 870.3	23819
 870.8	23893
 871.2	23838
 871.7	23840
 872.1	23780
 872.6	23839
 873.0	23812
 873.5	23915
 874.0	23916
 874.4	23797
 874.9	23854
 875.3	23811
 875.8	23726
 876.2	23491
 876.7	23318
 877.2	22921
 877.6	22451
 878.1	21985
