#xlabel Wavelength (nm)
#ylabel Spectrometer Array Counts
#title Exposure time is 12000 ms
## lambda	counts
 349.8	20769
 350.3	21086
 350.8	21371
 351.3	21593
 351.9	21707
 352.4	21814
 352.9	21875
 353.4	21823
 354.0	21815
 354.5	21867
 355.0	21858
 355.5	21880
 356.0	21835
 356.6	21798
 357.1	21846
 357.6	21822
 358.1	21858
 358.7	21794
 359.2	21814
 359.7	21833
 360.2	21876
 360.8	21838
 361.3	21934
 361.8	21875
 362.3	21908
 362.9	21860
 363.4	21944
 363.9	21938
 364.4	21973
 364.9	21868
 365.5	21952
 366.0	21928
 366.5	21870
 367.0	21932
 367.6	21945
 368.1	21955
 368.6	21875
 369.1	21933
 369.7	21986
 370.2	21897
 370.7	21899
 371.2	21947
 371.8	22001
 372.3	21913
 372.8	21995
 373.3	22007
 373.9	21936
 374.4	21964
 374.9	22011
 375.5	21883
 376.0	22026
 376.5	21967
 377.0	22002
 377.6	21943
 378.1	22027
 378.6	21945
 379.1	21953
 379.7	21926
 380.2	22007
 380.7	22007
 381.2	21954
 381.8	21941
 382.3	21981
 382.8	21951
 383.4	22007
 383.9	21945
 384.4	22118
 384.9	22003
 385.5	22025
 386.0	22034
 386.5	22100
 387.1	22027
 387.6	22042
 388.1	22039
 388.6	22055
 389.2	22035
 389.7	22057
 390.2	22030
 390.8	22129
 391.3	22093
 391.8	22079
 392.3	22059
 392.9	22035
 393.4	22030
 393.9	22107
 394.5	22103
 395.0	22036
 395.5	22059
 396.0	22054
 396.6	22008
 397.1	22114
 397.6	22113
 398.2	22109
 398.7	22101
 399.2	22219
 399.8	22063
 400.3	22134
 400.8	22181
 401.3	22145
 401.9	22150
 402.4	22182
 402.9	22163
 403.5	22189
 404.0	22166
 404.5	22106
 405.1	22109
 405.6	22211
 406.1	22175
 406.7	22183
 407.2	22184
 407.7	22263
 408.2	22252
 408.8	22251
 409.3	22280
 409.8	22319
 410.4	22281
 410.9	22278
 411.4	22213
 412.0	22281
 412.5	22332
 413.0	22271
 413.6	22313
 414.1	22266
 414.6	22290
 415.2	22336
 415.7	22270
 416.2	22311
 416.8	22291
 417.3	22271
 417.8	22294
 418.4	22393
 418.9	22314
 419.4	22461
 420.0	22325
 420.5	22392
 421.0	22323
 421.5	22414
 422.1	22379
 422.6	22436
 423.1	22463
 423.7	22419
 424.2	22401
 424.7	22437
 425.3	22414
 425.8	22435
 426.3	22413
 426.9	22475
 427.4	22402
 427.9	22534
 428.5	22457
 429.0	22490
 429.6	22450
 430.1	22535
 430.6	22517
 431.2	22443
 431.7	22554
 432.2	22508
 432.8	22475
 433.3	22590
 433.8	22590
 434.4	22544
 434.9	22555
 435.4	22611
 436.0	22577
 436.5	22572
 437.0	22642
 437.6	22607
 438.1	22662
 438.6	22667
 439.2	22693
 439.7	22685
 440.2	22619
 440.8	22647
 441.3	22656
 441.8	22655
 442.4	22610
 442.9	22651
 443.5	22701
 444.0	22683
 444.5	22710
 445.1	22605
 445.6	22642
 446.1	22660
 446.7	22685
 447.2	22701
 447.7	22681
 448.3	22751
 448.8	22706
 449.3	22744
 449.9	22673
 450.4	22792
 450.9	22819
 451.5	22819
 452.0	22787
 452.6	22795
 453.1	22856
 453.6	22862
 454.2	22728
 454.7	22810
 455.2	22828
 455.8	22879
 456.3	22818
 456.8	22950
 457.4	22866
 457.9	22873
 458.5	22923
 459.0	22879
 459.5	22925
 460.1	22872
 460.6	22919
 461.1	22907
 461.7	22960
 462.2	22907
 462.7	22955
 463.3	22868
 463.8	22947
 464.4	23019
 464.9	22951
 465.4	23031
 466.0	22917
 466.5	22999
 467.0	22920
 467.6	22989
 468.1	23090
 468.7	23015
 469.2	22929
 469.7	23039
 470.3	23014
 470.8	23057
 471.3	23029
 471.9	22975
 472.4	23041
 473.0	23083
 473.5	23099
 474.0	23093
 474.6	23092
 475.1	23089
 475.6	23174
 476.2	23183
 476.7	23159
 477.3	23213
 477.8	23151
 478.3	23067
 478.9	23298
 479.4	23170
 479.9	23178
 480.5	23161
 481.0	23194
 481.6	23215
 482.1	23291
 482.6	23258
 483.2	23271
 483.7	23389
 484.2	23327
 484.8	23149
 485.3	23250
 485.9	23330
 486.4	23289
 486.9	23314
 487.5	23263
 488.0	23269
 488.6	23347
 489.1	23359
 489.6	23418
 490.2	23411
 490.7	23366
 491.2	23331
 491.8	23393
 492.3	23340
 492.9	23396
 493.4	23400
 493.9	23431
 494.5	23428
 495.0	23499
 495.6	23413
 496.1	23429
 496.6	23493
 497.2	23398
 497.7	23360
 498.2	23463
 498.8	23487
 499.3	23393
 499.9	23457
 500.4	23455
 500.9	23439
 501.5	23424
 502.0	23504
 502.6	23478
 503.1	23577
 503.6	23535
 504.2	23493
 504.7	23494
 505.2	23558
 505.8	23552
 506.3	23648
 506.9	23659
 507.4	23614
 507.9	23585
 508.5	23629
 509.0	23672
 509.6	23755
 510.1	23725
 510.6	23761
 511.2	23787
 511.7	23773
 512.2	23855
 512.8	23879
 513.3	23836
 513.9	23818
 514.4	23889
 514.9	23979
 515.5	23866
 516.0	23953
 516.6	23912
 517.1	23974
 517.6	23959
 518.2	23928
 518.7	23856
 519.3	23924
 519.8	23965
 520.3	23957
 520.9	23909
 521.4	23910
 521.9	23987
 522.5	23893
 523.0	23917
 523.6	23961
 524.1	23795
 524.6	23855
 525.2	23881
 525.7	23924
 526.3	23833
 526.8	23933
 527.3	23877
 527.9	23907
 528.4	23888
 528.9	23953
 529.5	23971
 530.0	23963
 530.6	24017
 531.1	24025
 531.6	23930
 532.2	24069
 532.7	24027
 533.3	24069
 533.8	24209
 534.3	24257
 534.9	24247
 535.4	24195
 536.0	24280
 536.5	24326
 537.0	24293
 537.6	24324
 538.1	24379
 538.6	24411
 539.2	24341
 539.7	24369
 540.3	24483
 540.8	24447
 541.3	24401
 541.9	24441
 542.4	24439
 543.0	24519
 543.5	24480
 544.0	24449
 544.6	24503
 545.1	24515
 545.6	24557
 546.2	24542
 546.7	24434
 547.3	24510
 547.8	24493
 548.3	24538
 548.9	24442
 549.4	24444
 550.0	24412
 550.5	24490
 551.0	24536
 551.6	24474
 552.1	24505
 552.6	24509
 553.2	24470
 553.7	24449
 554.3	24495
 554.8	24567
 555.3	24405
 555.9	24475
 556.4	24445
 556.9	24561
 557.5	24595
 558.0	24538
 558.6	24517
 559.1	24596
 559.6	24580
 560.2	24592
 560.7	24594
 561.3	24556
 561.8	24530
 562.3	24667
 562.9	24653
 563.4	24691
 563.9	24679
 564.5	24701
 565.0	24686
 565.6	24708
 566.1	24708
 566.6	24711
 567.2	24707
 567.7	24817
 568.2	24721
 568.8	24738
 569.3	24714
 569.9	24785
 570.4	24773
 570.9	24741
 571.5	24741
 572.0	24735
 572.5	24797
 573.1	24744
 573.6	24798
 574.1	24789
 574.7	24786
 575.2	24762
 575.8	24812
 576.3	24899
 576.8	24858
 577.4	24873
 577.9	24898
 578.4	24843
 579.0	24859
 579.5	24987
 580.1	24895
 580.6	24911
 581.1	24999
 581.7	25027
 582.2	24957
 582.7	25006
 583.3	25061
 583.8	25034
 584.3	24978
 584.9	25049
 585.4	25053
 586.0	25029
 586.5	25066
 587.0	25027
 587.6	25121
 588.1	25067
 588.6	25153
 589.2	25093
 589.7	25109
 590.2	25103
 590.8	25097
 591.3	25125
 591.9	25065
 592.4	25145
 592.9	25069
 593.5	25057
 594.0	25051
 594.5	25074
 595.1	25054
 595.6	25025
 596.1	25088
 596.7	25055
 597.2	25102
 597.7	25024
 598.3	25044
 598.8	25013
 599.3	25020
 599.9	24997
 600.4	24993
 601.0	24996
 601.5	24987
 602.0	24976
 602.6	24920
 603.1	24941
 603.6	24945
 604.2	25061
 604.7	24958
 605.2	25042
 605.8	24941
 606.3	24968
 606.8	25057
 607.4	25032
 607.9	25079
 608.4	25025
 609.0	25063
 609.5	25117
 610.0	25096
 610.6	25193
 611.1	25111
 611.6	25146
 612.2	25153
 612.7	25219
 613.2	25219
 613.8	25146
 614.3	25178
 614.8	25242
 615.4	25175
 615.9	25284
 616.4	25353
 617.0	25299
 617.5	25407
 618.0	25430
 618.6	25359
 619.1	25399
 619.6	25489
 620.2	25499
 620.7	25579
 621.2	25538
 621.8	25583
 622.3	25629
 622.8	25592
 623.4	25635
 623.9	25700
 624.4	25685
 625.0	25690
 625.5	25687
 626.0	25705
 626.6	25770
 627.1	25764
 627.6	25706
 628.2	25680
 628.7	25714
 629.2	25700
 629.8	25734
 630.3	25736
 630.8	25720
 631.4	25697
 631.9	25725
 632.4	25603
 632.9	25630
 633.5	25625
 634.0	25577
 634.5	25650
 635.1	25585
 635.6	25567
 636.1	25547
 636.7	25593
 637.2	25590
 637.7	25483
 638.3	25591
 638.8	25577
 639.3	25599
 639.8	25534
 640.4	25547
 640.9	25571
 641.4	25475
 642.0	25459
 642.5	25483
 643.0	25447
 643.6	25545
 644.1	25507
 644.6	25518
 645.1	25561
 645.7	25536
 646.2	25495
 646.7	25523
 647.3	25554
 647.8	25567
 648.3	25540
 648.9	25583
 649.4	25486
 649.9	25566
 650.4	25586
 651.0	25640
 651.5	25652
 652.0	25717
 652.6	25660
 653.1	25747
 653.6	25653
 654.1	25734
 654.7	25694
 655.2	25793
 655.7	25837
 656.3	25854
 656.8	25798
 657.3	25865
 657.8	25806
 658.4	25817
 658.9	25828
 659.4	25908
 659.9	25917
 660.5	25891
 661.0	25948
 661.5	25994
 662.1	25958
 662.6	25967
 663.1	25932
 663.6	26027
 664.2	25972
 664.7	25955
 665.2	25877
 665.7	26017
 666.3	25969
 666.8	25978
 667.3	25983
 667.8	25946
 668.4	25981
 668.9	25989
 669.4	25970
 669.9	26010
 670.5	25939
 671.0	25959
 671.5	25908
 672.0	25969
 672.6	25973
 673.1	26010
 673.6	25909
 674.1	25953
 674.7	25948
 675.2	25991
 675.7	25844
 676.2	25847
 676.8	25923
 677.3	25933
 677.8	25860
 678.3	25979
 678.9	25909
 679.4	25847
 679.9	25919
 680.4	25925
 681.0	25887
 681.5	25929
 682.0	25899
 682.5	25933
 683.1	25832
 683.6	25889
 684.1	25826
 684.6	25943
 685.1	25875
 685.7	25903
 686.2	25883
 686.7	25842
 687.2	25830
 687.8	25915
 688.3	25854
 688.8	25875
 689.3	25810
 689.8	25857
 690.4	25849
 690.9	25860
 691.4	25871
 691.9	25897
 692.4	25861
 693.0	25939
 693.5	25905
 694.0	25894
 694.5	25894
 695.1	25868
 695.6	25826
 696.1	25908
 696.6	25896
 697.1	25917
 697.7	25953
 698.2	25870
 698.7	25906
 699.2	25865
 699.7	25885
 700.3	25855
 700.8	25831
 701.3	25946
 701.8	25905
 702.3	25852
 702.8	25859
 703.4	25833
 703.9	25839
 704.4	25837
 704.9	25806
 705.4	25802
 706.0	25901
 706.5	25895
 707.0	25799
 707.5	25796
 708.0	25827
 708.5	25771
 709.1	25847
 709.6	25801
 710.1	25759
 710.6	25737
 711.1	25727
 711.7	25753
 712.2	25739
 712.7	25754
 713.2	25723
 713.7	25724
 714.2	25659
 714.8	25753
 715.3	25680
 715.8	25681
 716.3	25677
 716.8	25579
 717.3	25557
 717.8	25671
 718.4	25679
 718.9	25603
 719.4	25705
 719.9	25593
 720.4	25643
 720.9	25658
 721.4	25652
 722.0	25693
 722.5	25669
 723.0	25660
 723.5	25686
 724.0	25653
 724.5	25641
 725.0	25683
 725.6	25615
 726.1	25676
 726.6	25815
 727.1	25753
 727.6	25793
 728.1	25828
 728.6	25776
 729.1	25780
 729.7	25772
 730.2	25805
 730.7	25835
 731.2	25886
 731.7	25875
 732.2	25893
 732.7	25869
 733.2	25920
 733.8	25899
 734.3	25923
 734.8	25899
 735.3	25926
 735.8	25921
 736.3	25893
 736.8	25935
 737.3	25993
 737.8	25938
 738.4	25930
 738.9	25885
 739.4	25988
 739.9	25978
 740.4	25995
 740.9	25967
 741.4	25973
 741.9	25975
 742.4	25997
 742.9	25978
 743.4	26082
 744.0	25987
 744.5	25988
 745.0	26003
 745.5	26091
 746.0	26061
 746.5	26073
 747.0	26007
 747.5	25995
 748.0	25971
 748.5	25996
 749.0	26000
 749.5	26107
 750.0	25929
 750.5	25995
 751.1	25993
 751.6	26003
 752.1	25997
 752.6	25949
 753.1	25991
 753.6	25920
 754.1	25886
 754.6	25940
 755.1	25889
 755.6	25905
 756.1	25809
 756.6	25915
 757.1	25879
 757.6	25867
 758.1	25827
 758.6	25840
 759.1	25764
 759.6	25811
 760.1	25745
 760.7	25703
 761.2	25786
 761.7	25726
 762.2	25705
 762.7	25753
 763.2	25609
 763.7	25701
 764.2	25624
 764.7	25628
 765.2	25660
 765.7	25617
 766.2	25577
 766.7	25627
 767.2	25570
 767.7	25580
 768.2	25559
 768.7	25514
 769.2	25500
 769.7	25555
 770.2	25514
 770.7	25513
 771.2	25477
 771.7	25459
 772.2	25475
 772.7	25528
 773.2	25497
 773.7	25450
 774.2	25391
 774.7	25444
 775.2	25427
 775.7	25406
 776.2	25397
 776.7	25427
 777.2	25342
 777.7	25434
 778.2	25406
 778.7	25454
 779.2	25463
 779.7	25499
 780.2	25315
 780.7	25397
 781.2	25399
 781.7	25474
 782.2	25387
 782.6	25466
 783.1	25479
 783.6	25435
 784.1	25400
 784.6	25392
 785.1	25403
 785.6	25403
 786.1	25443
 786.6	25453
 787.1	25391
 787.6	25399
 788.1	25387
 788.6	25375
 789.1	25361
 789.6	25399
 790.1	25421
 790.6	25417
 791.1	25307
 791.6	25318
 792.0	25331
 792.5	25383
 793.0	25356
 793.5	25352
 794.0	25286
 794.5	25378
 795.0	25336
 795.5	25321
 796.0	25327
 796.5	25259
 797.0	25291
 797.5	25336
 798.0	25167
 798.4	25203
 798.9	25191
 799.4	25203
 799.9	25205
 800.4	25053
 800.9	25159
 801.4	25218
 801.9	25174
 802.4	25079
 802.9	25146
 803.3	25141
 803.8	25099
 804.3	25033
 804.8	25095
 805.3	25040
 805.8	25015
 806.3	25011
 806.8	24987
 807.2	24974
 807.7	24947
 808.2	24961
 808.7	24870
 809.2	24873
 809.7	24792
 810.2	24867
 810.7	24783
 811.1	24803
 811.6	24801
 812.1	24740
 812.6	24691
 813.1	24742
 813.6	24756
 814.1	24721
 814.5	24675
 815.0	24701
 815.5	24642
 816.0	24596
 816.5	24655
 817.0	24603
 817.4	24588
 817.9	24613
 818.4	24528
 818.9	24625
 819.4	24569
 819.9	24542
 820.3	24504
 820.8	24502
 821.3	24513
 821.8	24505
 822.3	24445
 822.7	24423
 823.2	24494
 823.7	24432
 824.2	24439
 824.7	24401
 825.2	24427
 825.6	24403
 826.1	24385
 826.6	24447
 827.1	24425
 827.6	24415
 828.0	24341
 828.5	24318
 829.0	24361
 829.5	24289
 829.9	24299
 830.4	24364
 830.9	24342
 831.4	24370
 831.9	24314
 832.3	24395
 832.8	24335
 833.3	24335
 833.8	24422
 834.2	24406
 834.7	24235
 835.2	24339
 835.7	24332
 836.1	24336
 836.6	24316
 837.1	24314
 837.6	24321
 838.0	24356
 838.5	24383
 839.0	24385
 839.5	24375
 839.9	24283
 840.4	24295
 840.9	24252
 841.4	24297
 841.8	24325
 842.3	24335
 842.8	24355
 843.3	24354
 843.7	24242
 844.2	24227
 844.7	24321
 845.1	24291
 845.6	24201
 846.1	24223
 846.6	24257
 847.0	24145
 847.5	24201
 848.0	24174
 848.4	24215
 848.9	24171
 849.4	24155
 849.8	24173
 850.3	24177
 850.8	24223
 851.3	24178
 851.7	24173
 852.2	24170
 852.7	24162
 853.1	24142
 853.6	24083
 854.1	24121
 854.5	24079
 855.0	24070
 855.5	24053
 855.9	24116
 856.4	24096
 856.9	24005
 857.3	24067
 857.8	24027
 858.3	24059
 858.7	24006
 859.2	24034
 859.7	24022
 860.1	24080
 860.6	24049
 861.1	23980
 861.5	24025
 862.0	24017
 862.4	23989
 862.9	23940
 863.4	23974
 863.8	23977
 864.3	23974
 864.8	23877
 865.2	23922
 865.7	23931
 866.1	23954
 866.6	23852
 867.1	23937
 867.5	23914
 868.0	23891
 868.5	23833
 868.9	23826
 869.4	23929
 869.8	23886
 870.3	23826
 870.8	23901
 871.2	23842
 871.7	23836
 872.1	23778
 872.6	23826
 873.0	23792
 873.5	23892
 874.0	23883
 874.4	23765
 874.9	23828
 875.3	23811
 875.8	23745
 876.2	23544
 876.7	23398
 877.2	23018
 877.6	22538
 878.1	22050
