#xlabel Wavelength (nm)
#ylabel Spectrometer Array Counts
#title Exposure time is 12000 ms
## lambda	counts
 349.8	20649
 350.3	20911
 350.8	21182
 351.3	21415
 351.9	21555
 352.4	21700
 352.9	21791
 353.4	21774
 354.0	21787
 354.5	21850
 355.0	21850
 355.5	21883
 356.0	21837
 356.6	21793
 357.1	21841
 357.6	21814
 358.1	21848
 358.7	21776
 359.2	21803
 359.7	21817
 360.2	21857
 360.8	21817
 361.3	21919
 361.8	21854
 362.3	21884
 362.9	21843
 363.4	21921
 363.9	21917
 364.4	21948
 364.9	21846
 365.5	21926
 366.0	21905
 366.5	21849
 367.0	21898
 367.6	21924
 368.1	21926
 368.6	21851
 369.1	21911
 369.7	21966
 370.2	21869
 370.7	21875
 371.2	21921
 371.8	21983
 372.3	21886
 372.8	21973
 373.3	21987
 373.9	21917
 374.4	21940
 374.9	21988
 375.5	21863
 376.0	22000
 376.5	21945
 377.0	21982
 377.6	21919
 378.1	22003
 378.6	21921
 379.1	21930
 379.7	21902
 380.2	21986
 380.7	21982
 381.2	21931
 381.8	21919
 382.3	21959
 382.8	21935
 383.4	21981
 383.9	21924
 384.4	22094
 384.9	21983
 385.5	21997
 386.0	22005
 386.5	22079
 387.1	22000
 387.6	22019
 388.1	22011
 388.6	22029
 389.2	22012
 389.7	22037
 390.2	22009
 390.8	22110
 391.3	22065
 391.8	22057
 392.3	22032
 392.9	22014
 393.4	22005
 393.9	22078
 394.5	22079
 395.0	22013
 395.5	22039
 396.0	22030
 396.6	21990
 397.1	22093
 397.6	22089
 398.2	22082
 398.7	22075
 399.2	22189
 399.8	22045
 400.3	22114
 400.8	22157
 401.3	22124
 401.9	22134
 402.4	22161
 402.9	22135
 403.5	22168
 404.0	22142
 404.5	22085
 405.1	22087
 405.6	22193
 406.1	22156
 406.7	22159
 407.2	22159
 407.7	22239
 408.2	22226
 408.8	22227
 409.3	22253
 409.8	22291
 410.4	22256
 410.9	22251
 411.4	22185
 412.0	22253
 412.5	22307
 413.0	22246
 413.6	22287
 414.1	22243
 414.6	22267
 415.2	22316
 415.7	22245
 416.2	22294
 416.8	22267
 417.3	22253
 417.8	22263
 418.4	22365
 418.9	22291
 419.4	22437
 420.0	22295
 420.5	22373
 421.0	22294
 421.5	22391
 422.1	22359
 422.6	22407
 423.1	22437
 423.7	22395
 424.2	22377
 424.7	22411
 425.3	22382
 425.8	22403
 426.3	22380
 426.9	22449
 427.4	22371
 427.9	22506
 428.5	22431
 429.0	22468
 429.6	22418
 430.1	22503
 430.6	22492
 431.2	22412
 431.7	22524
 432.2	22478
 432.8	22451
 433.3	22561
 433.8	22560
 434.4	22520
 434.9	22524
 435.4	22580
 436.0	22546
 436.5	22543
 437.0	22615
 437.6	22575
 438.1	22633
 438.6	22643
 439.2	22669
 439.7	22654
 440.2	22587
 440.8	22626
 441.3	22628
 441.8	22627
 442.4	22586
 442.9	22620
 443.5	22670
 444.0	22652
 444.5	22679
 445.1	22573
 445.6	22615
 446.1	22636
 446.7	22652
 447.2	22667
 447.7	22650
 448.3	22725
 448.8	22679
 449.3	22711
 449.9	22642
 450.4	22761
 450.9	22789
 451.5	22787
 452.0	22747
 452.6	22761
 453.1	22830
 453.6	22832
 454.2	22695
 454.7	22777
 455.2	22802
 455.8	22849
 456.3	22779
 456.8	22925
 457.4	22836
 457.9	22838
 458.5	22891
 459.0	22849
 459.5	22897
 460.1	22839
 460.6	22884
 461.1	22871
 461.7	22929
 462.2	22877
 462.7	22917
 463.3	22839
 463.8	22913
 464.4	22986
 464.9	22911
 465.4	22998
 466.0	22881
 466.5	22963
 467.0	22887
 467.6	22959
 468.1	23062
 468.7	22981
 469.2	22902
 469.7	23007
 470.3	22978
 470.8	23019
 471.3	22998
 471.9	22947
 472.4	23007
 473.0	23048
 473.5	23073
 474.0	23057
 474.6	23063
 475.1	23055
 475.6	23138
 476.2	23150
 476.7	23119
 477.3	23181
 477.8	23113
 478.3	23036
 478.9	23263
 479.4	23135
 479.9	23151
 480.5	23125
 481.0	23158
 481.6	23180
 482.1	23251
 482.6	23222
 483.2	23235
 483.7	23354
 484.2	23287
 484.8	23108
 485.3	23212
 485.9	23299
 486.4	23257
 486.9	23281
 487.5	23229
 488.0	23240
 488.6	23307
 489.1	23317
 489.6	23380
 490.2	23371
 490.7	23325
 491.2	23292
 491.8	23357
 492.3	23301
 492.9	23359
 493.4	23363
 493.9	23389
 494.5	23391
 495.0	23461
 495.6	23378
 496.1	23387
 496.6	23451
 497.2	23361
 497.7	23323
 498.2	23432
 498.8	23449
 499.3	23355
 499.9	23418
 500.4	23418
 500.9	23402
 501.5	23386
 502.0	23470
 502.6	23440
 503.1	23541
 503.6	23497
 504.2	23452
 504.7	23455
 505.2	23522
 505.8	23515
 506.3	23613
 506.9	23623
 507.4	23575
 507.9	23548
 508.5	23594
 509.0	23638
 509.6	23717
 510.1	23686
 510.6	23729
 511.2	23745
 511.7	23734
 512.2	23814
 512.8	23833
 513.3	23791
 513.9	23779
 514.4	23857
 514.9	23938
 515.5	23820
 516.0	23913
 516.6	23874
 517.1	23933
 517.6	23915
 518.2	23890
 518.7	23816
 519.3	23886
 519.8	23922
 520.3	23910
 520.9	23866
 521.4	23872
 521.9	23943
 522.5	23851
 523.0	23873
 523.6	23917
 524.1	23750
 524.6	23811
 525.2	23846
 525.7	23878
 526.3	23798
 526.8	23892
 527.3	23839
 527.9	23869
 528.4	23847
 528.9	23913
 529.5	23931
 530.0	23925
 530.6	23978
 531.1	23980
 531.6	23889
 532.2	24018
 532.7	23989
 533.3	24030
 533.8	24167
 534.3	24217
 534.9	24207
 535.4	24151
 536.0	24235
 536.5	24279
 537.0	24244
 537.6	24277
 538.1	24337
 538.6	24365
 539.2	24302
 539.7	24325
 540.3	24444
 540.8	24403
 541.3	24357
 541.9	24395
 542.4	24397
 543.0	24473
 543.5	24435
 544.0	24406
 544.6	24459
 545.1	24473
 545.6	24515
 546.2	24497
 546.7	24391
 547.3	24465
 547.8	24440
 548.3	24497
 548.9	24399
 549.4	24403
 550.0	24368
 550.5	24443
 551.0	24495
 551.6	24435
 552.1	24462
 552.6	24466
 553.2	24427
 553.7	24404
 554.3	24445
 554.8	24527
 555.3	24366
 555.9	24428
 556.4	24401
 556.9	24515
 557.5	24545
 558.0	24495
 558.6	24474
 559.1	24551
 559.6	24534
 560.2	24541
 560.7	24548
 561.3	24510
 561.8	24484
 562.3	24622
 562.9	24607
 563.4	24645
 563.9	24637
 564.5	24652
 565.0	24641
 565.6	24663
 566.1	24661
 566.6	24669
 567.2	24660
 567.7	24768
 568.2	24673
 568.8	24691
 569.3	24663
 569.9	24741
 570.4	24728
 570.9	24700
 571.5	24694
 572.0	24692
 572.5	24756
 573.1	24700
 573.6	24761
 574.1	24747
 574.7	24743
 575.2	24713
 575.8	24765
 576.3	24857
 576.8	24814
 577.4	24830
 577.9	24850
 578.4	24797
 579.0	24814
 579.5	24942
 580.1	24848
 580.6	24866
 581.1	24955
 581.7	24978
 582.2	24910
 582.7	24963
 583.3	25010
 583.8	24989
 584.3	24933
 584.9	25003
 585.4	25006
 586.0	24976
 586.5	25019
 587.0	24977
 587.6	25070
 588.1	25020
 588.6	25099
 589.2	25039
 589.7	25063
 590.2	25053
 590.8	25045
 591.3	25081
 591.9	25023
 592.4	25091
 592.9	25018
 593.5	25007
 594.0	25007
 594.5	25037
 595.1	25009
 595.6	24977
 596.1	25041
 596.7	25011
 597.2	25053
 597.7	24973
 598.3	24990
 598.8	24965
 599.3	24972
 599.9	24948
 600.4	24944
 601.0	24953
 601.5	24943
 602.0	24927
 602.6	24875
 603.1	24890
 603.6	24898
 604.2	25020
 604.7	24909
 605.2	24993
 605.8	24892
 606.3	24921
 606.8	25006
 607.4	24985
 607.9	25032
 608.4	24972
 609.0	25019
 609.5	25069
 610.0	25046
 610.6	25148
 611.1	25064
 611.6	25096
 612.2	25102
 612.7	25175
 613.2	25171
 613.8	25095
 614.3	25138
 614.8	25194
 615.4	25127
 615.9	25235
 616.4	25303
 617.0	25246
 617.5	25359
 618.0	25382
 618.6	25304
 619.1	25349
 619.6	25431
 620.2	25441
 620.7	25520
 621.2	25489
 621.8	25529
 622.3	25579
 622.8	25538
 623.4	25580
 623.9	25651
 624.4	25631
 625.0	25635
 625.5	25637
 626.0	25651
 626.6	25718
 627.1	25711
 627.6	25654
 628.2	25623
 628.7	25659
 629.2	25647
 629.8	25681
 630.3	25686
 630.8	25663
 631.4	25650
 631.9	25673
 632.4	25553
 632.9	25578
 633.5	25572
 634.0	25527
 634.5	25601
 635.1	25532
 635.6	25513
 636.1	25496
 636.7	25538
 637.2	25547
 637.7	25433
 638.3	25543
 638.8	25532
 639.3	25543
 639.8	25481
 640.4	25495
 640.9	25524
 641.4	25422
 642.0	25413
 642.5	25429
 643.0	25398
 643.6	25499
 644.1	25457
 644.6	25463
 645.1	25511
 645.7	25485
 646.2	25442
 646.7	25471
 647.3	25505
 647.8	25515
 648.3	25491
 648.9	25535
 649.4	25436
 649.9	25517
 650.4	25535
 651.0	25585
 651.5	25602
 652.0	25665
 652.6	25611
 653.1	25695
 653.6	25598
 654.1	25690
 654.7	25639
 655.2	25745
 655.7	25783
 656.3	25802
 656.8	25747
 657.3	25814
 657.8	25755
 658.4	25767
 658.9	25777
 659.4	25859
 659.9	25862
 660.5	25837
 661.0	25889
 661.5	25945
 662.1	25911
 662.6	25915
 663.1	25877
 663.6	25973
 664.2	25914
 664.7	25902
 665.2	25815
 665.7	25965
 666.3	25916
 666.8	25931
 667.3	25930
 667.8	25894
 668.4	25927
 668.9	25939
 669.4	25925
 669.9	25955
 670.5	25887
 671.0	25903
 671.5	25857
 672.0	25920
 672.6	25926
 673.1	25965
 673.6	25858
 674.1	25898
 674.7	25892
 675.2	25946
 675.7	25790
 676.2	25793
 676.8	25869
 677.3	25886
 677.8	25806
 678.3	25931
 678.9	25851
 679.4	25795
 679.9	25869
 680.4	25874
 681.0	25837
 681.5	25882
 682.0	25841
 682.5	25882
 683.1	25783
 683.6	25836
 684.1	25769
 684.6	25891
 685.1	25827
 685.7	25852
 686.2	25830
 686.7	25793
 687.2	25775
 687.8	25864
 688.3	25805
 688.8	25833
 689.3	25763
 689.8	25802
 690.4	25794
 690.9	25811
 691.4	25822
 691.9	25848
 692.4	25807
 693.0	25889
 693.5	25858
 694.0	25841
 694.5	25838
 695.1	25815
 695.6	25768
 696.1	25853
 696.6	25841
 697.1	25865
 697.7	25895
 698.2	25813
 698.7	25853
 699.2	25815
 699.7	25827
 700.3	25809
 700.8	25783
 701.3	25896
 701.8	25851
 702.3	25799
 702.8	25810
 703.4	25780
 703.9	25793
 704.4	25784
 704.9	25757
 705.4	25756
 706.0	25853
 706.5	25846
 707.0	25751
 707.5	25742
 708.0	25776
 708.5	25715
 709.1	25791
 709.6	25754
 710.1	25710
 710.6	25682
 711.1	25677
 711.7	25701
 712.2	25691
 712.7	25701
 713.2	25675
 713.7	25677
 714.2	25606
 714.8	25703
 715.3	25638
 715.8	25631
 716.3	25626
 716.8	25528
 717.3	25510
 717.8	25626
 718.4	25638
 718.9	25559
 719.4	25656
 719.9	25547
 720.4	25601
 720.9	25613
 721.4	25606
 722.0	25642
 722.5	25623
 723.0	25615
 723.5	25639
 724.0	25603
 724.5	25591
 725.0	25633
 725.6	25563
 726.1	25627
 726.6	25765
 727.1	25697
 727.6	25752
 728.1	25780
 728.6	25731
 729.1	25727
 729.7	25719
 730.2	25755
 730.7	25790
 731.2	25837
 731.7	25827
 732.2	25844
 732.7	25822
 733.2	25877
 733.8	25851
 734.3	25875
 734.8	25852
 735.3	25880
 735.8	25869
 736.3	25837
 736.8	25891
 737.3	25949
 737.8	25887
 738.4	25889
 738.9	25834
 739.4	25940
 739.9	25925
 740.4	25938
 740.9	25924
 741.4	25925
 741.9	25920
 742.4	25947
 742.9	25925
 743.4	26033
 744.0	25932
 744.5	25935
 745.0	25951
 745.5	26040
 746.0	26010
 746.5	26027
 747.0	25955
 747.5	25946
 748.0	25922
 748.5	25947
 749.0	25956
 749.5	26060
 750.0	25883
 750.5	25941
 751.1	25951
 751.6	25961
 752.1	25939
 752.6	25901
 753.1	25943
 753.6	25865
 754.1	25837
 754.6	25886
 755.1	25836
 755.6	25858
 756.1	25756
 756.6	25865
 757.1	25832
 757.6	25821
 758.1	25781
 758.6	25791
 759.1	25712
 759.6	25763
 760.1	25705
 760.7	25654
 761.2	25733
 761.7	25675
 762.2	25652
 762.7	25707
 763.2	25561
 763.7	25657
 764.2	25575
 764.7	25578
 765.2	25611
 765.7	25575
 766.2	25534
 766.7	25581
 767.2	25525
 767.7	25531
 768.2	25514
 768.7	25467
 769.2	25454
 769.7	25506
 770.2	25471
 770.7	25467
 771.2	25432
 771.7	25422
 772.2	25429
 772.7	25486
 773.2	25457
 773.7	25404
 774.2	25346
 774.7	25401
 775.2	25384
 775.7	25366
 776.2	25360
 776.7	25392
 777.2	25307
 777.7	25393
 778.2	25362
 778.7	25407
 779.2	25417
 779.7	25459
 780.2	25274
 780.7	25357
 781.2	25359
 781.7	25437
 782.2	25347
 782.6	25422
 783.1	25437
 783.6	25394
 784.1	25358
 784.6	25345
 785.1	25359
 785.6	25358
 786.1	25395
 786.6	25410
 787.1	25351
 787.6	25347
 788.1	25340
 788.6	25331
 789.1	25316
 789.6	25353
 790.1	25377
 790.6	25378
 791.1	25268
 791.6	25279
 792.0	25293
 792.5	25338
 793.0	25310
 793.5	25308
 794.0	25240
 794.5	25333
 795.0	25295
 795.5	25281
 796.0	25288
 796.5	25216
 797.0	25243
 797.5	25295
 798.0	25126
 798.4	25159
 798.9	25146
 799.4	25159
 799.9	25168
 800.4	25012
 800.9	25119
 801.4	25177
 801.9	25136
 802.4	25042
 802.9	25105
 803.3	25099
 803.8	25062
 804.3	24991
 804.8	25056
 805.3	25005
 805.8	24974
 806.3	24966
 806.8	24948
 807.2	24935
 807.7	24908
 808.2	24923
 808.7	24831
 809.2	24833
 809.7	24756
 810.2	24828
 810.7	24743
 811.1	24763
 811.6	24764
 812.1	24706
 812.6	24654
 813.1	24699
 813.6	24719
 814.1	24687
 814.5	24638
 815.0	24665
 815.5	24611
 816.0	24559
 816.5	24621
 817.0	24566
 817.4	24547
 817.9	24582
 818.4	24495
 818.9	24590
 819.4	24536
 819.9	24508
 820.3	24471
 820.8	24463
 821.3	24475
 821.8	24468
 822.3	24409
 822.7	24389
 823.2	24454
 823.7	24393
 824.2	24405
 824.7	24374
 825.2	24391
 825.6	24370
 826.1	24351
 826.6	24413
 827.1	24391
 827.6	24381
 828.0	24307
 828.5	24281
 829.0	24327
 829.5	24258
 829.9	24264
 830.4	24339
 830.9	24305
 831.4	24337
 831.9	24286
 832.3	24362
 832.8	24295
 833.3	24299
 833.8	24387
 834.2	24381
 834.7	24201
 835.2	24307
 835.7	24306
 836.1	24307
 836.6	24282
 837.1	24279
 837.6	24287
 838.0	24326
 838.5	24350
 839.0	24351
 839.5	24345
 839.9	24257
 840.4	24263
 840.9	24223
 841.4	24268
 841.8	24288
 842.3	24305
 842.8	24322
 843.3	24315
 843.7	24208
 844.2	24195
 844.7	24283
 845.1	24257
 845.6	24166
 846.1	24193
 846.6	24221
 847.0	24111
 847.5	24167
 848.0	24148
 848.4	24185
 848.9	24139
 849.4	24124
 849.8	24145
 850.3	24148
 850.8	24193
 851.3	24145
 851.7	24141
 852.2	24140
 852.7	24133
 853.1	24114
 853.6	24050
 854.1	24091
 854.5	24051
 855.0	24039
 855.5	24023
 855.9	24086
 856.4	24068
 856.9	23978
 857.3	24034
 857.8	23995
 858.3	24031
 858.7	23978
 859.2	24004
 859.7	23987
 860.1	24051
 860.6	24021
 861.1	23951
 861.5	23991
 862.0	23987
 862.4	23956
 862.9	23909
 863.4	23945
 863.8	23946
 864.3	23942
 864.8	23846
 865.2	23893
 865.7	23905
 866.1	23924
 866.6	23827
 867.1	23905
 867.5	23887
 868.0	23862
 868.5	23811
 868.9	23799
 869.4	23908
 869.8	23861
 870.3	23803
 870.8	23879
 871.2	23823
 871.7	23821
 872.1	23770
 872.6	23818
 873.0	23797
 873.5	23886
 874.0	23867
 874.4	23731
 874.9	23759
 875.3	23699
 875.8	23583
 876.2	23325
 876.7	23150
 877.2	22774
 877.6	22353
 878.1	21963
