#xlabel Wavelength (nm)
#ylabel Spectrometer Array Counts
#title Exposure time is 10000 ms
## lambda	counts
 349.8	17470
 350.3	17725
 350.8	17966
 351.3	18155
 351.9	18261
 352.4	18382
 352.9	18460
 353.4	18431
 354.0	18434
 354.5	18487
 355.0	18493
 355.5	18507
 356.0	18473
 356.6	18441
 357.1	18492
 357.6	18468
 358.1	18501
 358.7	18444
 359.2	18459
 359.7	18486
 360.2	18523
 360.8	18494
 361.3	18592
 361.8	18543
 362.3	18569
 362.9	18534
 363.4	18613
 363.9	18616
 364.4	18645
 364.9	18560
 365.5	18633
 366.0	18620
 366.5	18581
 367.0	18629
 367.6	18658
 368.1	18659
 368.6	18600
 369.1	18659
 369.7	18713
 370.2	18640
 370.7	18646
 371.2	18692
 371.8	18752
 372.3	18677
 372.8	18761
 373.3	18779
 373.9	18723
 374.4	18747
 374.9	18799
 375.5	18701
 376.0	18828
 376.5	18798
 377.0	18828
 377.6	18780
 378.1	18866
 378.6	18813
 379.1	18821
 379.7	18808
 380.2	18889
 380.7	18900
 381.2	18865
 381.8	18865
 382.3	18910
 382.8	18899
 383.4	18953
 383.9	18905
 384.4	19059
 384.9	18975
 385.5	19002
 386.0	19003
 386.5	19074
 387.1	19015
 387.6	19043
 388.1	19050
 388.6	19072
 389.2	19070
 389.7	19101
 390.2	19095
 390.8	19185
 391.3	19170
 391.8	19183
 392.3	19180
 392.9	19195
 393.4	19196
 393.9	19274
 394.5	19292
 395.0	19263
 395.5	19289
 396.0	19306
 396.6	19280
 397.1	19385
 397.6	19391
 398.2	19397
 398.7	19403
 399.2	19499
 399.8	19379
 400.3	19445
 400.8	19503
 401.3	19477
 401.9	19497
 402.4	19529
 402.9	19523
 403.5	19563
 404.0	19565
 404.5	19526
 405.1	19545
 405.6	19655
 406.1	19650
 406.7	19671
 407.2	19693
 407.7	19785
 408.2	19805
 408.8	19819
 409.3	19864
 409.8	19928
 410.4	19901
 410.9	19924
 411.4	19890
 412.0	19967
 412.5	20026
 413.0	19991
 413.6	20043
 414.1	20024
 414.6	20069
 415.2	20123
 415.7	20073
 416.2	20141
 416.8	20135
 417.3	20139
 417.8	20174
 418.4	20276
 418.9	20227
 419.4	20374
 420.0	20272
 420.5	20346
 421.0	20305
 421.5	20403
 422.1	20392
 422.6	20454
 423.1	20496
 423.7	20473
 424.2	20466
 424.7	20517
 425.3	20499
 425.8	20536
 426.3	20534
 426.9	20601
 427.4	20555
 427.9	20677
 428.5	20637
 429.0	20690
 429.6	20672
 430.1	20774
 430.6	20799
 431.2	20769
 431.7	20900
 432.2	20895
 432.8	20903
 433.3	21038
 433.8	21079
 434.4	21079
 434.9	21123
 435.4	21203
 436.0	21209
 436.5	21228
 437.0	21326
 437.6	21316
 438.1	21390
 438.6	21407
 439.2	21441
 439.7	21437
 440.2	21397
 440.8	21423
 441.3	21437
 441.8	21447
 442.4	21414
 442.9	21449
 443.5	21483
 444.0	21481
 444.5	21511
 445.1	21435
 445.6	21481
 446.1	21525
 446.7	21559
 447.2	21591
 447.7	21603
 448.3	21704
 448.8	21701
 449.3	21774
 449.9	21755
 450.4	21902
 450.9	21979
 451.5	22024
 452.0	22049
 452.6	22107
 453.1	22213
 453.6	22267
 454.2	22205
 454.7	22326
 455.2	22381
 455.8	22455
 456.3	22431
 456.8	22577
 457.4	22536
 457.9	22560
 458.5	22625
 459.0	22597
 459.5	22644
 460.1	22611
 460.6	22658
 461.1	22648
 461.7	22697
 462.2	22655
 462.7	22696
 463.3	22632
 463.8	22709
 464.4	22780
 464.9	22739
 465.4	22819
 466.0	22742
 466.5	22832
 467.0	22787
 467.6	22881
 468.1	22993
 468.7	22961
 469.2	22917
 469.7	23044
 470.3	23059
 470.8	23130
 471.3	23143
 471.9	23143
 472.4	23228
 473.0	23301
 473.5	23355
 474.0	23375
 474.6	23422
 475.1	23443
 475.6	23543
 476.2	23582
 476.7	23585
 477.3	23668
 477.8	23642
 478.3	23593
 478.9	23822
 479.4	23739
 479.9	23779
 480.5	23797
 481.0	23855
 481.6	23905
 482.1	24002
 482.6	24012
 483.2	24069
 483.7	24202
 484.2	24177
 484.8	24058
 485.3	24183
 485.9	24279
 486.4	24281
 486.9	24336
 487.5	24323
 488.0	24362
 488.6	24449
 489.1	24491
 489.6	24561
 490.2	24583
 490.7	24561
 491.2	24551
 491.8	24621
 492.3	24587
 492.9	24645
 493.4	24661
 493.9	24687
 494.5	24692
 495.0	24748
 495.6	24673
 496.1	24681
 496.6	24738
 497.2	24651
 497.7	24624
 498.2	24703
 498.8	24717
 499.3	24648
 499.9	24701
 500.4	24710
 500.9	24711
 501.5	24724
 502.0	24827
 502.6	24837
 503.1	24950
 503.6	24962
 504.2	24969
 504.7	25023
 505.2	25137
 505.8	25179
 506.3	25330
 506.9	25410
 507.4	25451
 507.9	25496
 508.5	25599
 509.0	25715
 509.6	25859
 510.1	25887
 510.6	25986
 511.2	26073
 511.7	26138
 512.2	26246
 512.8	26327
 513.3	26350
 513.9	26373
 514.4	26469
 514.9	26580
 515.5	26495
 516.0	26582
 516.6	26548
 517.1	26589
 517.6	26557
 518.2	26525
 518.7	26447
 519.3	26480
 519.8	26479
 520.3	26436
 520.9	26377
 521.4	26358
 521.9	26383
 522.5	26273
 523.0	26254
 523.6	26274
 524.1	26122
 524.6	26161
 525.2	26175
 525.7	26225
 526.3	26170
 526.8	26270
 527.3	26239
 527.9	26293
 528.4	26305
 528.9	26394
 529.5	26450
 530.0	26486
 530.6	26583
 531.1	26640
 531.6	26615
 532.2	26791
 532.7	26827
 533.3	26933
 533.8	27119
 534.3	27226
 534.9	27302
 535.4	27327
 536.0	27469
 536.5	27575
 537.0	27619
 537.6	27709
 538.1	27823
 538.6	27898
 539.2	27899
 539.7	27971
 540.3	28110
 540.8	28126
 541.3	28115
 541.9	28180
 542.4	28203
 543.0	28295
 543.5	28269
 544.0	28264
 544.6	28297
 545.1	28315
 545.6	28339
 546.2	28328
 546.7	28235
 547.3	28288
 547.8	28263
 548.3	28297
 548.9	28203
 549.4	28192
 550.0	28160
 550.5	28213
 551.0	28238
 551.6	28191
 552.1	28191
 552.6	28201
 553.2	28147
 553.7	28134
 554.3	28167
 554.8	28242
 555.3	28113
 555.9	28195
 556.4	28181
 556.9	28303
 557.5	28335
 558.0	28322
 558.6	28325
 559.1	28414
 559.6	28424
 560.2	28469
 560.7	28499
 561.3	28503
 561.8	28517
 562.3	28659
 562.9	28671
 563.4	28734
 563.9	28746
 564.5	28785
 565.0	28792
 565.6	28831
 566.1	28851
 566.6	28868
 567.2	28869
 567.7	28976
 568.2	28918
 568.8	28931
 569.3	28927
 569.9	28997
 570.4	28974
 570.9	28973
 571.5	28980
 572.0	28989
 572.5	29057
 573.1	29022
 573.6	29096
 574.1	29098
 574.7	29126
 575.2	29124
 575.8	29181
 576.3	29287
 576.8	29284
 577.4	29329
 577.9	29374
 578.4	29385
 579.0	29428
 579.5	29571
 580.1	29533
 580.6	29589
 581.1	29707
 581.7	29767
 582.2	29755
 582.7	29823
 583.3	29897
 583.8	29915
 584.3	29897
 584.9	29983
 585.4	30014
 586.0	30030
 586.5	30092
 587.0	30091
 587.6	30181
 588.1	30159
 588.6	30235
 589.2	30203
 589.7	30238
 590.2	30239
 590.8	30221
 591.3	30250
 591.9	30182
 592.4	30227
 592.9	30152
 593.5	30123
 594.0	30090
 594.5	30084
 595.1	30021
 595.6	29969
 596.1	29993
 596.7	29935
 597.2	29937
 597.7	29846
 598.3	29837
 598.8	29784
 599.3	29757
 599.9	29689
 600.4	29662
 601.0	29651
 601.5	29621
 602.0	29596
 602.6	29544
 603.1	29562
 603.6	29563
 604.2	29649
 604.7	29577
 605.2	29654
 605.8	29579
 606.3	29629
 606.8	29712
 607.4	29727
 607.9	29797
 608.4	29766
 609.0	29844
 609.5	29906
 610.0	29918
 610.6	30051
 611.1	29999
 611.6	30093
 612.2	30129
 612.7	30221
 613.2	30271
 613.8	30251
 614.3	30342
 614.8	30425
 615.4	30438
 615.9	30583
 616.4	30696
 617.0	30707
 617.5	30844
 618.0	30935
 618.6	30959
 619.1	31069
 619.6	31200
 620.2	31299
 620.7	31439
 621.2	31494
 621.8	31597
 622.3	31693
 622.8	31736
 623.4	31814
 623.9	31924
 624.4	31942
 625.0	31975
 625.5	31990
 626.0	32025
 626.6	32087
 627.1	32069
 627.6	32022
 628.2	31993
 628.7	32030
 629.2	32005
 629.8	32007
 630.3	31989
 630.8	31951
 631.4	31889
 631.9	31863
 632.4	31711
 632.9	31678
 633.5	31625
 634.0	31548
 634.5	31544
 635.1	31444
 635.6	31387
 636.1	31318
 636.7	31287
 637.2	31239
 637.7	31096
 638.3	31151
 638.8	31099
 639.3	31073
 639.8	30981
 640.4	30967
 640.9	30961
 641.4	30857
 642.0	30811
 642.5	30803
 643.0	30767
 643.6	30835
 644.1	30785
 644.6	30798
 645.1	30802
 645.7	30812
 646.2	30766
 646.7	30793
 647.3	30820
 647.8	30851
 648.3	30825
 648.9	30882
 649.4	30827
 649.9	30910
 650.4	30947
 651.0	31025
 651.5	31061
 652.0	31140
 652.6	31127
 653.1	31239
 653.6	31195
 654.1	31289
 654.7	31290
 655.2	31406
 655.7	31477
 656.3	31524
 656.8	31521
 657.3	31605
 657.8	31600
 658.4	31635
 658.9	31691
 659.4	31777
 659.9	31803
 660.5	31805
 661.0	31862
 661.5	31923
 662.1	31906
 662.6	31931
 663.1	31903
 663.6	32008
 664.2	31961
 664.7	31945
 665.2	31897
 665.7	31998
 666.3	31958
 666.8	31950
 667.3	31953
 667.8	31924
 668.4	31932
 668.9	31931
 669.4	31898
 669.9	31905
 670.5	31833
 671.0	31844
 671.5	31787
 672.0	31814
 672.6	31791
 673.1	31817
 673.6	31710
 674.1	31724
 674.7	31699
 675.2	31730
 675.7	31599
 676.2	31572
 676.8	31616
 677.3	31611
 677.8	31525
 678.3	31605
 678.9	31534
 679.4	31452
 679.9	31506
 680.4	31483
 681.0	31442
 681.5	31459
 682.0	31403
 682.5	31425
 683.1	31324
 683.6	31339
 684.1	31278
 684.6	31364
 685.1	31308
 685.7	31303
 686.2	31281
 686.7	31237
 687.2	31233
 687.8	31281
 688.3	31224
 688.8	31240
 689.3	31181
 689.8	31211
 690.4	31202
 690.9	31209
 691.4	31242
 691.9	31237
 692.4	31221
 693.0	31283
 693.5	31253
 694.0	31247
 694.5	31237
 695.1	31226
 695.6	31185
 696.1	31256
 696.6	31248
 697.1	31267
 697.7	31293
 698.2	31229
 698.7	31257
 699.2	31219
 699.7	31218
 700.3	31176
 700.8	31149
 701.3	31223
 701.8	31183
 702.3	31126
 702.8	31124
 703.4	31103
 703.9	31075
 704.4	31025
 704.9	30991
 705.4	30981
 706.0	31026
 706.5	31001
 707.0	30901
 707.5	30874
 708.0	30880
 708.5	30807
 709.1	30847
 709.6	30798
 710.1	30728
 710.6	30697
 711.1	30668
 711.7	30665
 712.2	30635
 712.7	30631
 713.2	30583
 713.7	30576
 714.2	30520
 714.8	30596
 715.3	30533
 715.8	30525
 716.3	30522
 716.8	30443
 717.3	30431
 717.8	30524
 718.4	30533
 718.9	30477
 719.4	30561
 719.9	30463
 720.4	30514
 720.9	30534
 721.4	30526
 722.0	30561
 722.5	30551
 723.0	30551
 723.5	30567
 724.0	30548
 724.5	30539
 725.0	30576
 725.6	30523
 726.1	30581
 726.6	30694
 727.1	30634
 727.6	30682
 728.1	30711
 728.6	30669
 729.1	30669
 729.7	30657
 730.2	30682
 730.7	30713
 731.2	30739
 731.7	30733
 732.2	30751
 732.7	30725
 733.2	30768
 733.8	30736
 734.3	30769
 734.8	30760
 735.3	30799
 735.8	30801
 736.3	30793
 736.8	30849
 737.3	30909
 737.8	30862
 738.4	30871
 738.9	30836
 739.4	30925
 739.9	30913
 740.4	30942
 740.9	30920
 741.4	30923
 741.9	30915
 742.4	30931
 742.9	30911
 743.4	30978
 744.0	30883
 744.5	30872
 745.0	30858
 745.5	30921
 746.0	30877
 746.5	30884
 747.0	30811
 747.5	30777
 748.0	30739
 748.5	30748
 749.0	30735
 749.5	30801
 750.0	30631
 750.5	30643
 751.1	30619
 751.6	30597
 752.1	30553
 752.6	30504
 753.1	30520
 753.6	30429
 754.1	30375
 754.6	30377
 755.1	30308
 755.6	30281
 756.1	30173
 756.6	30229
 757.1	30168
 757.6	30124
 758.1	30047
 758.6	30009
 759.1	29901
 759.6	29909
 760.1	29825
 760.7	29749
 761.2	29791
 761.7	29715
 762.2	29662
 762.7	29665
 763.2	29511
 763.7	29553
 764.2	29448
 764.7	29410
 765.2	29392
 765.7	29318
 766.2	29244
 766.7	29235
 767.2	29139
 767.7	29105
 768.2	29047
 768.7	28979
 769.2	28931
 769.7	28931
 770.2	28868
 770.7	28842
 771.2	28782
 771.7	28739
 772.2	28724
 772.7	28741
 773.2	28685
 773.7	28618
 774.2	28551
 774.7	28569
 775.2	28519
 775.7	28489
 776.2	28451
 776.7	28463
 777.2	28375
 777.7	28425
 778.2	28379
 778.7	28414
 779.2	28397
 779.7	28413
 780.2	28249
 780.7	28295
 781.2	28281
 781.7	28327
 782.2	28254
 782.6	28303
 783.1	28294
 783.6	28249
 784.1	28197
 784.6	28188
 785.1	28187
 785.6	28180
 786.1	28187
 786.6	28191
 787.1	28134
 787.6	28114
 788.1	28095
 788.6	28066
 789.1	28042
 789.6	28039
 790.1	28045
 790.6	28026
 791.1	27919
 791.6	27902
 792.0	27879
 792.5	27892
 793.0	27843
 793.5	27815
 794.0	27735
 794.5	27787
 795.0	27721
 795.5	27681
 796.0	27647
 796.5	27576
 797.0	27555
 797.5	27559
 798.0	27378
 798.4	27375
 798.9	27312
 799.4	27287
 799.9	27249
 800.4	27075
 800.9	27131
 801.4	27127
 801.9	27044
 802.4	26921
 802.9	26930
 803.3	26876
 803.8	26798
 804.3	26707
 804.8	26705
 805.3	26621
 805.8	26546
 806.3	26493
 806.8	26430
 807.2	26374
 807.7	26303
 808.2	26271
 808.7	26151
 809.2	26114
 809.7	26002
 810.2	26025
 810.7	25913
 811.1	25879
 811.6	25831
 812.1	25745
 812.6	25668
 813.1	25669
 813.6	25645
 814.1	25589
 814.5	25508
 815.0	25494
 815.5	25406
 816.0	25329
 816.5	25350
 817.0	25273
 817.4	25222
 817.9	25219
 818.4	25115
 818.9	25167
 819.4	25089
 819.9	25039
 820.3	24977
 820.8	24951
 821.3	24931
 821.8	24912
 822.3	24820
 822.7	24777
 823.2	24810
 823.7	24746
 824.2	24724
 824.7	24673
 825.2	24667
 825.6	24622
 826.1	24589
 826.6	24624
 827.1	24581
 827.6	24560
 828.0	24486
 828.5	24444
 829.0	24457
 829.5	24389
 829.9	24374
 830.4	24403
 830.9	24373
 831.4	24382
 831.9	24318
 832.3	24377
 832.8	24298
 833.3	24293
 833.8	24347
 834.2	24333
 834.7	24169
 835.2	24248
 835.7	24234
 836.1	24214
 836.6	24182
 837.1	24170
 837.6	24167
 838.0	24187
 838.5	24195
 839.0	24182
 839.5	24170
 839.9	24079
 840.4	24077
 840.9	24031
 841.4	24058
 841.8	24073
 842.3	24061
 842.8	24070
 843.3	24055
 843.7	23943
 844.2	23923
 844.7	23987
 845.1	23953
 845.6	23863
 846.1	23875
 846.6	23893
 847.0	23785
 847.5	23822
 848.0	23787
 848.4	23813
 848.9	23751
 849.4	23713
 849.8	23717
 850.3	23707
 850.8	23731
 851.3	23677
 851.7	23655
 852.2	23638
 852.7	23615
 853.1	23583
 853.6	23507
 854.1	23533
 854.5	23477
 855.0	23445
 855.5	23420
 855.9	23465
 856.4	23424
 856.9	23322
 857.3	23354
 857.8	23299
 858.3	23300
 858.7	23240
 859.2	23245
 859.7	23245
 860.1	23287
 860.6	23245
 861.1	23164
 861.5	23185
 862.0	23167
 862.4	23121
 862.9	23069
 863.4	23095
 863.8	23076
 864.3	23054
 864.8	22958
 865.2	22987
 865.7	22983
 866.1	22981
 866.6	22882
 867.1	22940
 867.5	22905
 868.0	22863
 868.5	22799
 868.9	22766
 869.4	22845
 869.8	22784
 870.3	22718
 870.8	22771
 871.2	22709
 871.7	22683
 872.1	22620
 872.6	22651
 873.0	22602
 873.5	22662
 874.0	22623
 874.4	22500
 874.9	22518
 875.3	22454
 875.8	22326
 876.2	22107
 876.7	21934
 877.2	21571
 877.6	21133
 878.1	20677
