#xlabel Wavelength (nm)
#ylabel Spectrometer Array Counts
#title Exposure time is 10000 ms
## lambda	counts
 349.8	17335
 350.3	17566
 350.8	17803
 351.3	17978
 351.9	18082
 352.4	18195
 352.9	18271
 353.4	18246
 354.0	18254
 354.5	18307
 355.0	18317
 355.5	18340
 356.0	18306
 356.6	18278
 357.1	18327
 357.6	18309
 358.1	18335
 358.7	18279
 359.2	18287
 359.7	18312
 360.2	18345
 360.8	18309
 361.3	18398
 361.8	18353
 362.3	18375
 362.9	18336
 363.4	18405
 363.9	18404
 364.4	18432
 364.9	18341
 365.5	18417
 366.0	18395
 366.5	18353
 367.0	18397
 367.6	18421
 368.1	18425
 368.6	18355
 369.1	18414
 369.7	18460
 370.2	18387
 370.7	18380
 371.2	18425
 371.8	18479
 372.3	18401
 372.8	18474
 373.3	18486
 373.9	18429
 374.4	18444
 374.9	18491
 375.5	18385
 376.0	18507
 376.5	18475
 377.0	18494
 377.6	18437
 378.1	18516
 378.6	18449
 379.1	18453
 379.7	18423
 380.2	18505
 380.7	18504
 381.2	18465
 381.8	18454
 382.3	18494
 382.8	18473
 383.4	18519
 383.9	18469
 384.4	18618
 384.9	18529
 385.5	18545
 386.0	18544
 386.5	18617
 387.1	18543
 387.6	18565
 388.1	18569
 388.6	18588
 389.2	18571
 389.7	18591
 390.2	18567
 390.8	18651
 391.3	18621
 391.8	18621
 392.3	18610
 392.9	18602
 393.4	18589
 393.9	18661
 394.5	18664
 395.0	18614
 395.5	18633
 396.0	18632
 396.6	18598
 397.1	18693
 397.6	18683
 398.2	18694
 398.7	18691
 399.2	18774
 399.8	18651
 400.3	18714
 400.8	18762
 401.3	18735
 401.9	18745
 402.4	18762
 402.9	18757
 403.5	18781
 404.0	18773
 404.5	18722
 405.1	18728
 405.6	18823
 406.1	18798
 406.7	18805
 407.2	18806
 407.7	18890
 408.2	18883
 408.8	18879
 409.3	18910
 409.8	18959
 410.4	18911
 410.9	18919
 411.4	18872
 412.0	18936
 412.5	18981
 413.0	18929
 413.6	18977
 414.1	18941
 414.6	18967
 415.2	19016
 415.7	18949
 416.2	19004
 416.8	18982
 417.3	18971
 417.8	18991
 418.4	19081
 418.9	19011
 419.4	19150
 420.0	19032
 420.5	19101
 421.0	19043
 421.5	19129
 422.1	19103
 422.6	19154
 423.1	19183
 423.7	19151
 424.2	19135
 424.7	19169
 425.3	19146
 425.8	19173
 426.3	19155
 426.9	19211
 427.4	19159
 427.9	19269
 428.5	19206
 429.0	19251
 429.6	19206
 430.1	19290
 430.6	19288
 431.2	19233
 431.7	19329
 432.2	19297
 432.8	19280
 433.3	19385
 433.8	19393
 434.4	19369
 434.9	19383
 435.4	19435
 436.0	19418
 436.5	19415
 437.0	19488
 437.6	19467
 438.1	19517
 438.6	19524
 439.2	19552
 439.7	19543
 440.2	19489
 440.8	19517
 441.3	19519
 441.8	19528
 442.4	19495
 442.9	19522
 443.5	19553
 444.0	19544
 444.5	19580
 445.1	19493
 445.6	19526
 446.1	19553
 446.7	19570
 447.2	19593
 447.7	19579
 448.3	19652
 448.8	19615
 449.3	19659
 449.9	19612
 450.4	19717
 450.9	19755
 451.5	19760
 452.0	19739
 452.6	19761
 453.1	19825
 453.6	19843
 454.2	19744
 454.7	19820
 455.2	19849
 455.8	19893
 456.3	19842
 456.8	19968
 457.4	19903
 457.9	19914
 458.5	19964
 459.0	19923
 459.5	19963
 460.1	19917
 460.6	19969
 461.1	19954
 461.7	20002
 462.2	19951
 462.7	19993
 463.3	19921
 463.8	19997
 464.4	20058
 464.9	20008
 465.4	20072
 466.0	19978
 466.5	20048
 467.0	19988
 467.6	20065
 468.1	20153
 468.7	20087
 469.2	20024
 469.7	20122
 470.3	20106
 470.8	20149
 471.3	20135
 471.9	20100
 472.4	20161
 473.0	20201
 473.5	20226
 474.0	20226
 474.6	20234
 475.1	20235
 475.6	20305
 476.2	20325
 476.7	20307
 477.3	20367
 477.8	20314
 478.3	20246
 478.9	20451
 479.4	20345
 479.9	20362
 480.5	20352
 481.0	20382
 481.6	20407
 482.1	20473
 482.6	20465
 483.2	20483
 483.7	20595
 484.2	20536
 484.8	20389
 485.3	20491
 485.9	20572
 486.4	20535
 486.9	20566
 487.5	20533
 488.0	20544
 488.6	20605
 489.1	20615
 489.6	20675
 490.2	20678
 490.7	20639
 491.2	20615
 491.8	20665
 492.3	20628
 492.9	20674
 493.4	20687
 493.9	20703
 494.5	20709
 495.0	20776
 495.6	20690
 496.1	20701
 496.6	20763
 497.2	20677
 497.7	20647
 498.2	20731
 498.8	20752
 499.3	20669
 499.9	20726
 500.4	20729
 500.9	20711
 501.5	20705
 502.0	20777
 502.6	20767
 503.1	20859
 503.6	20830
 504.2	20792
 504.7	20811
 505.2	20885
 505.8	20884
 506.3	20979
 506.9	21000
 507.4	20980
 507.9	20975
 508.5	21019
 509.0	21075
 509.6	21159
 510.1	21139
 510.6	21185
 511.2	21219
 511.7	21226
 512.2	21300
 512.8	21336
 513.3	21309
 513.9	21305
 514.4	21372
 514.9	21453
 515.5	21355
 516.0	21429
 516.6	21404
 517.1	21450
 517.6	21427
 518.2	21405
 518.7	21336
 519.3	21388
 519.8	21420
 520.3	21411
 520.9	21359
 521.4	21357
 521.9	21401
 522.5	21320
 523.0	21339
 523.6	21372
 524.1	21221
 524.6	21276
 525.2	21290
 525.7	21329
 526.3	21260
 526.8	21351
 527.3	21303
 527.9	21329
 528.4	21317
 528.9	21378
 529.5	21407
 530.0	21399
 530.6	21464
 531.1	21473
 531.6	21407
 532.2	21537
 532.7	21514
 533.3	21559
 533.8	21696
 534.3	21746
 534.9	21762
 535.4	21722
 536.0	21811
 536.5	21868
 537.0	21849
 537.6	21886
 538.1	21953
 538.6	21986
 539.2	21937
 539.7	21965
 540.3	22071
 540.8	22054
 541.3	22019
 541.9	22054
 542.4	22063
 543.0	22131
 543.5	22093
 544.0	22078
 544.6	22123
 545.1	22133
 545.6	22164
 546.2	22149
 546.7	22060
 547.3	22119
 547.8	22094
 548.3	22141
 548.9	22057
 549.4	22057
 550.0	22019
 550.5	22083
 551.0	22122
 551.6	22071
 552.1	22086
 552.6	22093
 553.2	22055
 553.7	22035
 554.3	22073
 554.8	22145
 555.3	22001
 555.9	22075
 556.4	22043
 556.9	22138
 557.5	22171
 558.0	22130
 558.6	22109
 559.1	22195
 559.6	22178
 560.2	22183
 560.7	22193
 561.3	22171
 561.8	22163
 562.3	22283
 562.9	22271
 563.4	22308
 563.9	22300
 564.5	22316
 565.0	22303
 565.6	22334
 566.1	22336
 566.6	22341
 567.2	22333
 567.7	22436
 568.2	22353
 568.8	22367
 569.3	22342
 569.9	22413
 570.4	22396
 570.9	22375
 571.5	22368
 572.0	22370
 572.5	22423
 573.1	22370
 573.6	22429
 574.1	22423
 574.7	22423
 575.2	22407
 575.8	22449
 576.3	22526
 576.8	22497
 577.4	22512
 577.9	22537
 578.4	22509
 579.0	22523
 579.5	22630
 580.1	22567
 580.6	22589
 581.1	22667
 581.7	22693
 582.2	22643
 582.7	22691
 583.3	22736
 583.8	22726
 584.3	22679
 584.9	22749
 585.4	22746
 586.0	22733
 586.5	22775
 587.0	22743
 587.6	22822
 588.1	22778
 588.6	22857
 589.2	22799
 589.7	22823
 590.2	22811
 590.8	22810
 591.3	22835
 591.9	22775
 592.4	22833
 592.9	22765
 593.5	22751
 594.0	22737
 594.5	22749
 595.1	22716
 595.6	22695
 596.1	22743
 596.7	22695
 597.2	22730
 597.7	22658
 598.3	22665
 598.8	22623
 599.3	22636
 599.9	22600
 600.4	22590
 601.0	22593
 601.5	22575
 602.0	22564
 602.6	22511
 603.1	22529
 603.6	22526
 604.2	22627
 604.7	22533
 605.2	22607
 605.8	22520
 606.3	22551
 606.8	22622
 607.4	22602
 607.9	22648
 608.4	22598
 609.0	22645
 609.5	22693
 610.0	22673
 610.6	22781
 611.1	22700
 611.6	22745
 612.2	22743
 612.7	22814
 613.2	22815
 613.8	22759
 614.3	22799
 614.8	22858
 615.4	22806
 615.9	22902
 616.4	22969
 617.0	22939
 617.5	23035
 618.0	23063
 618.6	23011
 619.1	23058
 619.6	23147
 620.2	23164
 620.7	23243
 621.2	23224
 621.8	23277
 622.3	23311
 622.8	23289
 623.4	23331
 623.9	23403
 624.4	23386
 625.0	23394
 625.5	23403
 626.0	23416
 626.6	23465
 627.1	23451
 627.6	23403
 628.2	23374
 628.7	23404
 629.2	23388
 629.8	23410
 630.3	23419
 630.8	23391
 631.4	23362
 631.9	23376
 632.4	23260
 632.9	23273
 633.5	23261
 634.0	23210
 634.5	23269
 635.1	23191
 635.6	23169
 636.1	23137
 636.7	23169
 637.2	23146
 637.7	23051
 638.3	23141
 638.8	23121
 639.3	23123
 639.8	23060
 640.4	23075
 640.9	23084
 641.4	22990
 642.0	22975
 642.5	22990
 643.0	22959
 643.6	23042
 644.1	22995
 644.6	23002
 645.1	23032
 645.7	23013
 646.2	22979
 646.7	22995
 647.3	23026
 647.8	23035
 648.3	23007
 648.9	23045
 649.4	22970
 649.9	23044
 650.4	23057
 651.0	23101
 651.5	23122
 652.0	23177
 652.6	23134
 653.1	23209
 653.6	23130
 654.1	23213
 654.7	23171
 655.2	23259
 655.7	23303
 656.3	23323
 656.8	23276
 657.3	23341
 657.8	23299
 658.4	23297
 658.9	23315
 659.4	23396
 659.9	23397
 660.5	23372
 661.0	23427
 661.5	23471
 662.1	23438
 662.6	23451
 663.1	23412
 663.6	23497
 664.2	23454
 664.7	23419
 665.2	23358
 665.7	23471
 666.3	23440
 666.8	23439
 667.3	23447
 667.8	23406
 668.4	23438
 668.9	23436
 669.4	23422
 669.9	23443
 670.5	23382
 671.0	23395
 671.5	23345
 672.0	23400
 672.6	23400
 673.1	23427
 673.6	23330
 674.1	23361
 674.7	23351
 675.2	23393
 675.7	23258
 676.2	23266
 676.8	23313
 677.3	23325
 677.8	23251
 678.3	23353
 678.9	23285
 679.4	23225
 679.9	23282
 680.4	23285
 681.0	23245
 681.5	23289
 682.0	23247
 682.5	23277
 683.1	23183
 683.6	23229
 684.1	23166
 684.6	23263
 685.1	23199
 685.7	23221
 686.2	23192
 686.7	23154
 687.2	23150
 687.8	23212
 688.3	23153
 688.8	23176
 689.3	23121
 689.8	23150
 690.4	23144
 690.9	23155
 691.4	23154
 691.9	23181
 692.4	23141
 693.0	23207
 693.5	23180
 694.0	23167
 694.5	23155
 695.1	23137
 695.6	23105
 696.1	23171
 696.6	23155
 697.1	23177
 697.7	23203
 698.2	23135
 698.7	23153
 699.2	23126
 699.7	23131
 700.3	23103
 700.8	23085
 701.3	23180
 701.8	23140
 702.3	23083
 702.8	23097
 703.4	23069
 703.9	23071
 704.4	23059
 704.9	23019
 705.4	23027
 706.0	23110
 706.5	23097
 707.0	23001
 707.5	22990
 708.0	23017
 708.5	22960
 709.1	23019
 709.6	22989
 710.1	22945
 710.6	22927
 711.1	22921
 711.7	22943
 712.2	22938
 712.7	22943
 713.2	22918
 713.7	22916
 714.2	22873
 714.8	22954
 715.3	22902
 715.8	22898
 716.3	22913
 716.8	22822
 717.3	22810
 717.8	22919
 718.4	22927
 718.9	22864
 719.4	22947
 719.9	22851
 720.4	22899
 720.9	22911
 721.4	22902
 722.0	22926
 722.5	22915
 723.0	22900
 723.5	22917
 724.0	22879
 724.5	22874
 725.0	22899
 725.6	22831
 726.1	22885
 726.6	22999
 727.1	22938
 727.6	22977
 728.1	22999
 728.6	22951
 729.1	22939
 729.7	22929
 730.2	22955
 730.7	22985
 731.2	23012
 731.7	23004
 732.2	23019
 732.7	22993
 733.2	23035
 733.8	23011
 734.3	23031
 734.8	23003
 735.3	23033
 735.8	23015
 736.3	22997
 736.8	23031
 737.3	23075
 737.8	23023
 738.4	23020
 738.9	22974
 739.4	23060
 739.9	23049
 740.4	23056
 740.9	23048
 741.4	23043
 741.9	23034
 742.4	23053
 742.9	23031
 743.4	23115
 744.0	23028
 744.5	23023
 745.0	23033
 745.5	23107
 746.0	23073
 746.5	23080
 747.0	23021
 747.5	23005
 748.0	22968
 748.5	22991
 749.0	23001
 749.5	23085
 750.0	22919
 750.5	22969
 751.1	22972
 751.6	22969
 752.1	22950
 752.6	22911
 753.1	22941
 753.6	22869
 754.1	22831
 754.6	22875
 755.1	22826
 755.6	22829
 756.1	22744
 756.6	22833
 757.1	22793
 757.6	22770
 758.1	22727
 758.6	22733
 759.1	22655
 759.6	22691
 760.1	22632
 760.7	22583
 761.2	22659
 761.7	22596
 762.2	22574
 762.7	22615
 763.2	22470
 763.7	22553
 764.2	22484
 764.7	22472
 765.2	22497
 765.7	22459
 766.2	22409
 766.7	22447
 767.2	22389
 767.7	22383
 768.2	22360
 768.7	22315
 769.2	22306
 769.7	22343
 770.2	22304
 770.7	22299
 771.2	22274
 771.7	22246
 772.2	22241
 772.7	22285
 773.2	22260
 773.7	22216
 774.2	22159
 774.7	22201
 775.2	22177
 775.7	22159
 776.2	22144
 776.7	22168
 777.2	22087
 777.7	22162
 778.2	22141
 778.7	22176
 779.2	22177
 779.7	22208
 780.2	22045
 780.7	22113
 781.2	22116
 781.7	22179
 782.2	22095
 782.6	22169
 783.1	22171
 783.6	22135
 784.1	22103
 784.6	22089
 785.1	22094
 785.6	22086
 786.1	22111
 786.6	22125
 787.1	22072
 787.6	22070
 788.1	22056
 788.6	22045
 789.1	22038
 789.6	22068
 790.1	22081
 790.6	22075
 791.1	21975
 791.6	21980
 792.0	21991
 792.5	22019
 793.0	21998
 793.5	21989
 794.0	21918
 794.5	22004
 795.0	21979
 795.5	21943
 796.0	21953
 796.5	21894
 797.0	21909
 797.5	21941
 798.0	21791
 798.4	21826
 798.9	21801
 799.4	21810
 799.9	21815
 800.4	21665
 800.9	21757
 801.4	21810
 801.9	21759
 802.4	21676
 802.9	21731
 803.3	21718
 803.8	21672
 804.3	21611
 804.8	21661
 805.3	21609
 805.8	21585
 806.3	21573
 806.8	21545
 807.2	21538
 807.7	21494
 808.2	21506
 808.7	21423
 809.2	21421
 809.7	21354
 810.2	21405
 810.7	21333
 811.1	21341
 811.6	21338
 812.1	21283
 812.6	21233
 813.1	21272
 813.6	21274
 814.1	21253
 814.5	21204
 815.0	21214
 815.5	21167
 816.0	21119
 816.5	21175
 817.0	21121
 817.4	21099
 817.9	21125
 818.4	21055
 818.9	21124
 819.4	21068
 819.9	21041
 820.3	21009
 820.8	21010
 821.3	21007
 821.8	21023
 822.3	20947
 822.7	20923
 823.2	20975
 823.7	20932
 824.2	20929
 824.7	20899
 825.2	20910
 825.6	20885
 826.1	20878
 826.6	20921
 827.1	20900
 827.6	20891
 828.0	20827
 828.5	20799
 829.0	20835
 829.5	20780
 829.9	20781
 830.4	20830
 830.9	20807
 831.4	20827
 831.9	20782
 832.3	20862
 832.8	20801
 833.3	20796
 833.8	20870
 834.2	20862
 834.7	20701
 835.2	20795
 835.7	20791
 836.1	20782
 836.6	20763
 837.1	20767
 837.6	20770
 838.0	20804
 838.5	20825
 839.0	20823
 839.5	20809
 839.9	20726
 840.4	20735
 840.9	20699
 841.4	20733
 841.8	20757
 842.3	20762
 842.8	20783
 843.3	20781
 843.7	20672
 844.2	20657
 844.7	20743
 845.1	20711
 845.6	20633
 846.1	20660
 846.6	20680
 847.0	20582
 847.5	20630
 848.0	20612
 848.4	20650
 848.9	20607
 849.4	20587
 849.8	20607
 850.3	20602
 850.8	20638
 851.3	20596
 851.7	20591
 852.2	20597
 852.7	20577
 853.1	20559
 853.6	20507
 854.1	20542
 854.5	20505
 855.0	20491
 855.5	20477
 855.9	20534
 856.4	20522
 856.9	20431
 857.3	20486
 857.8	20447
 858.3	20481
 858.7	20436
 859.2	20449
 859.7	20440
 860.1	20490
 860.6	20467
 861.1	20404
 861.5	20443
 862.0	20445
 862.4	20416
 862.9	20375
 863.4	20410
 863.8	20403
 864.3	20403
 864.8	20319
 865.2	20366
 865.7	20381
 866.1	20390
 866.6	20303
 867.1	20379
 867.5	20363
 868.0	20331
 868.5	20282
 868.9	20281
 869.4	20376
 869.8	20323
 870.3	20275
 870.8	20339
 871.2	20284
 871.7	20265
 872.1	20209
 872.6	20259
 873.0	20217
 873.5	20284
 874.0	20263
 874.4	20139
 874.9	20162
 875.3	20113
 875.8	20013
 876.2	19820
 876.7	19689
 877.2	19385
 877.6	19004
 878.1	18644
