#xlabel Wavelength (nm)
#ylabel Spectrometer Array Counts
#title Exposure time is 10000 ms
## lambda	counts
 349.8	17359
 350.3	17617
 350.8	17871
 351.3	18062
 351.9	18173
 352.4	18294
 352.9	18375
 353.4	18343
 354.0	18348
 354.5	18393
 355.0	18399
 355.5	18407
 356.0	18361
 356.6	18329
 357.1	18369
 357.6	18347
 358.1	18369
 358.7	18306
 359.2	18315
 359.7	18334
 360.2	18368
 360.8	18337
 361.3	18426
 361.8	18375
 362.3	18401
 362.9	18359
 363.4	18434
 363.9	18429
 364.4	18461
 364.9	18368
 365.5	18437
 366.0	18423
 366.5	18378
 367.0	18419
 367.6	18445
 368.1	18447
 368.6	18378
 369.1	18438
 369.7	18488
 370.2	18408
 370.7	18409
 371.2	18449
 371.8	18509
 372.3	18421
 372.8	18499
 373.3	18514
 373.9	18456
 374.4	18475
 374.9	18520
 375.5	18411
 376.0	18534
 376.5	18500
 377.0	18520
 377.6	18465
 378.1	18540
 378.6	18479
 379.1	18476
 379.7	18455
 380.2	18530
 380.7	18534
 381.2	18486
 381.8	18480
 382.3	18521
 382.8	18498
 383.4	18544
 383.9	18493
 384.4	18641
 384.9	18553
 385.5	18572
 386.0	18569
 386.5	18644
 387.1	18572
 387.6	18592
 388.1	18593
 388.6	18609
 389.2	18595
 389.7	18618
 390.2	18593
 390.8	18679
 391.3	18649
 391.8	18644
 392.3	18630
 392.9	18631
 393.4	18618
 393.9	18683
 394.5	18687
 395.0	18636
 395.5	18653
 396.0	18659
 396.6	18628
 397.1	18720
 397.6	18713
 398.2	18718
 398.7	18713
 399.2	18809
 399.8	18680
 400.3	18747
 400.8	18791
 401.3	18761
 401.9	18777
 402.4	18794
 402.9	18783
 403.5	18809
 404.0	18798
 404.5	18743
 405.1	18753
 405.6	18844
 406.1	18823
 406.7	18826
 407.2	18835
 407.7	18916
 408.2	18906
 408.8	18905
 409.3	18937
 409.8	18983
 410.4	18948
 410.9	18949
 411.4	18900
 412.0	18959
 412.5	19007
 413.0	18962
 413.6	19004
 414.1	18964
 414.6	18999
 415.2	19039
 415.7	18981
 416.2	19027
 416.8	19012
 417.3	18999
 417.8	19018
 418.4	19107
 418.9	19042
 419.4	19180
 420.0	19062
 420.5	19126
 421.0	19072
 421.5	19159
 422.1	19133
 422.6	19191
 423.1	19210
 423.7	19180
 424.2	19164
 424.7	19200
 425.3	19180
 425.8	19197
 426.3	19187
 426.9	19243
 427.4	19189
 427.9	19292
 428.5	19238
 429.0	19277
 429.6	19232
 430.1	19314
 430.6	19311
 431.2	19260
 431.7	19355
 432.2	19330
 432.8	19306
 433.3	19417
 433.8	19423
 434.4	19398
 434.9	19410
 435.4	19465
 436.0	19448
 436.5	19447
 437.0	19522
 437.6	19498
 438.1	19551
 438.6	19553
 439.2	19581
 439.7	19566
 440.2	19520
 440.8	19543
 441.3	19551
 441.8	19555
 442.4	19525
 442.9	19550
 443.5	19579
 444.0	19575
 444.5	19605
 445.1	19519
 445.6	19557
 446.1	19577
 446.7	19595
 447.2	19617
 447.7	19607
 448.3	19677
 448.8	19645
 449.3	19688
 449.9	19638
 450.4	19739
 450.9	19783
 451.5	19789
 452.0	19769
 452.6	19795
 453.1	19855
 453.6	19874
 454.2	19773
 454.7	19847
 455.2	19875
 455.8	19926
 456.3	19872
 456.8	20001
 457.4	19933
 457.9	19948
 458.5	19997
 459.0	19955
 459.5	19996
 460.1	19948
 460.6	19998
 461.1	19983
 461.7	20032
 462.2	19979
 462.7	20029
 463.3	19952
 463.8	20022
 464.4	20089
 464.9	20038
 465.4	20099
 466.0	20007
 466.5	20078
 467.0	20017
 467.6	20095
 468.1	20180
 468.7	20115
 469.2	20054
 469.7	20149
 470.3	20134
 470.8	20178
 471.3	20164
 471.9	20131
 472.4	20183
 473.0	20235
 473.5	20255
 474.0	20257
 474.6	20263
 475.1	20271
 475.6	20343
 476.2	20350
 476.7	20335
 477.3	20394
 477.8	20343
 478.3	20277
 478.9	20479
 479.4	20373
 479.9	20391
 480.5	20381
 481.0	20414
 481.6	20441
 482.1	20504
 482.6	20495
 483.2	20514
 483.7	20630
 484.2	20570
 484.8	20417
 485.3	20520
 485.9	20601
 486.4	20568
 486.9	20590
 487.5	20563
 488.0	20574
 488.6	20639
 489.1	20651
 489.6	20709
 490.2	20706
 490.7	20665
 491.2	20646
 491.8	20702
 492.3	20659
 492.9	20709
 493.4	20718
 493.9	20739
 494.5	20741
 495.0	20804
 495.6	20719
 496.1	20738
 496.6	20790
 497.2	20709
 497.7	20674
 498.2	20759
 498.8	20785
 499.3	20700
 499.9	20753
 500.4	20752
 500.9	20736
 501.5	20732
 502.0	20807
 502.6	20790
 503.1	20877
 503.6	20856
 504.2	20821
 504.7	20834
 505.2	20912
 505.8	20913
 506.3	21005
 506.9	21023
 507.4	21007
 507.9	21001
 508.5	21053
 509.0	21105
 509.6	21189
 510.1	21167
 510.6	21217
 511.2	21253
 511.7	21258
 512.2	21337
 512.8	21373
 513.3	21341
 513.9	21341
 514.4	21410
 514.9	21483
 515.5	21389
 516.0	21469
 516.6	21440
 517.1	21490
 517.6	21467
 518.2	21441
 518.7	21369
 519.3	21417
 519.8	21449
 520.3	21442
 520.9	21385
 521.4	21389
 521.9	21433
 522.5	21351
 523.0	21362
 523.6	21394
 524.1	21249
 524.6	21300
 525.2	21319
 525.7	21358
 526.3	21283
 526.8	21377
 527.3	21328
 527.9	21349
 528.4	21342
 528.9	21410
 529.5	21429
 530.0	21425
 530.6	21486
 531.1	21507
 531.6	21435
 532.2	21567
 532.7	21541
 533.3	21596
 533.8	21729
 534.3	21778
 534.9	21794
 535.4	21762
 536.0	21847
 536.5	21903
 537.0	21882
 537.6	21922
 538.1	21991
 538.6	22021
 539.2	21978
 539.7	22000
 540.3	22108
 540.8	22093
 541.3	22055
 541.9	22092
 542.4	22095
 543.0	22166
 543.5	22133
 544.0	22114
 544.6	22159
 545.1	22163
 545.6	22201
 546.2	22184
 546.7	22094
 547.3	22155
 547.8	22130
 548.3	22173
 548.9	22090
 549.4	22088
 550.0	22057
 550.5	22111
 551.0	22153
 551.6	22104
 552.1	22120
 552.6	22121
 553.2	22088
 553.7	22066
 554.3	22107
 554.8	22173
 555.3	22036
 555.9	22109
 556.4	22071
 556.9	22171
 557.5	22207
 558.0	22163
 558.6	22143
 559.1	22227
 559.6	22210
 560.2	22221
 560.7	22231
 561.3	22207
 561.8	22192
 562.3	22322
 562.9	22306
 563.4	22345
 563.9	22337
 564.5	22347
 565.0	22339
 565.6	22374
 566.1	22376
 566.6	22381
 567.2	22367
 567.7	22470
 568.2	22380
 568.8	22401
 569.3	22376
 569.9	22445
 570.4	22427
 570.9	22408
 571.5	22404
 572.0	22393
 572.5	22451
 573.1	22405
 573.6	22464
 574.1	22451
 574.7	22453
 575.2	22440
 575.8	22479
 576.3	22556
 576.8	22533
 577.4	22549
 577.9	22572
 578.4	22541
 579.0	22552
 579.5	22664
 580.1	22601
 580.6	22617
 581.1	22708
 581.7	22731
 582.2	22681
 582.7	22728
 583.3	22778
 583.8	22765
 584.3	22719
 584.9	22784
 585.4	22787
 586.0	22773
 586.5	22809
 587.0	22775
 587.6	22861
 588.1	22819
 588.6	22897
 589.2	22837
 589.7	22859
 590.2	22852
 590.8	22843
 591.3	22871
 591.9	22807
 592.4	22865
 592.9	22799
 593.5	22787
 594.0	22774
 594.5	22785
 595.1	22755
 595.6	22728
 596.1	22773
 596.7	22730
 597.2	22762
 597.7	22692
 598.3	22699
 598.8	22662
 599.3	22666
 599.9	22630
 600.4	22625
 601.0	22627
 601.5	22607
 602.0	22592
 602.6	22547
 603.1	22559
 603.6	22558
 604.2	22651
 604.7	22565
 605.2	22635
 605.8	22553
 606.3	22579
 606.8	22657
 607.4	22637
 607.9	22682
 608.4	22625
 609.0	22675
 609.5	22723
 610.0	22706
 610.6	22811
 611.1	22729
 611.6	22771
 612.2	22778
 612.7	22846
 613.2	22846
 613.8	22792
 614.3	22834
 614.8	22890
 615.4	22841
 615.9	22930
 616.4	23005
 617.0	22971
 617.5	23071
 618.0	23102
 618.6	23047
 619.1	23094
 619.6	23191
 620.2	23201
 620.7	23277
 621.2	23260
 621.8	23311
 622.3	23355
 622.8	23329
 623.4	23377
 623.9	23444
 624.4	23427
 625.0	23437
 625.5	23441
 626.0	23457
 626.6	23503
 627.1	23499
 627.6	23451
 628.2	23415
 628.7	23444
 629.2	23426
 629.8	23453
 630.3	23455
 630.8	23430
 631.4	23401
 631.9	23412
 632.4	23303
 632.9	23311
 633.5	23297
 634.0	23245
 634.5	23310
 635.1	23230
 635.6	23203
 636.1	23171
 636.7	23201
 637.2	23185
 637.7	23085
 638.3	23167
 638.8	23146
 639.3	23154
 639.8	23095
 640.4	23103
 640.9	23121
 641.4	23020
 642.0	23006
 642.5	23018
 643.0	22987
 643.6	23071
 644.1	23022
 644.6	23040
 645.1	23068
 645.7	23049
 646.2	23009
 646.7	23035
 647.3	23056
 647.8	23071
 648.3	23047
 648.9	23081
 649.4	23006
 649.9	23080
 650.4	23093
 651.0	23135
 651.5	23155
 652.0	23208
 652.6	23163
 653.1	23243
 653.6	23166
 654.1	23247
 654.7	23209
 655.2	23298
 655.7	23345
 656.3	23367
 656.8	23314
 657.3	23378
 657.8	23336
 658.4	23343
 658.9	23353
 659.4	23430
 659.9	23430
 660.5	23416
 661.0	23469
 661.5	23513
 662.1	23472
 662.6	23486
 663.1	23453
 663.6	23539
 664.2	23487
 664.7	23462
 665.2	23394
 665.7	23512
 666.3	23481
 666.8	23486
 667.3	23485
 667.8	23453
 668.4	23468
 668.9	23479
 669.4	23454
 669.9	23479
 670.5	23417
 671.0	23428
 671.5	23375
 672.0	23434
 672.6	23433
 673.1	23460
 673.6	23367
 674.1	23397
 674.7	23379
 675.2	23434
 675.7	23293
 676.2	23298
 676.8	23352
 677.3	23359
 677.8	23287
 678.3	23393
 678.9	23318
 679.4	23261
 679.9	23326
 680.4	23321
 681.0	23283
 681.5	23316
 682.0	23283
 682.5	23311
 683.1	23217
 683.6	23263
 684.1	23205
 684.6	23302
 685.1	23239
 685.7	23256
 686.2	23228
 686.7	23194
 687.2	23182
 687.8	23251
 688.3	23186
 688.8	23211
 689.3	23159
 689.8	23187
 690.4	23178
 690.9	23186
 691.4	23193
 691.9	23215
 692.4	23181
 693.0	23246
 693.5	23217
 694.0	23204
 694.5	23197
 695.1	23175
 695.6	23140
 696.1	23211
 696.6	23190
 697.1	23214
 697.7	23241
 698.2	23169
 698.7	23196
 699.2	23155
 699.7	23164
 700.3	23140
 700.8	23121
 701.3	23219
 701.8	23177
 702.3	23126
 702.8	23129
 703.4	23100
 703.9	23107
 704.4	23093
 704.9	23059
 705.4	23066
 706.0	23149
 706.5	23133
 707.0	23040
 707.5	23027
 708.0	23055
 708.5	22993
 709.1	23059
 709.6	23018
 710.1	22980
 710.6	22965
 711.1	22953
 711.7	22979
 712.2	22973
 712.7	22978
 713.2	22947
 713.7	22948
 714.2	22902
 714.8	22989
 715.3	22935
 715.8	22934
 716.3	22948
 716.8	22856
 717.3	22845
 717.8	22951
 718.4	22959
 718.9	22898
 719.4	22976
 719.9	22887
 720.4	22934
 720.9	22947
 721.4	22939
 722.0	22958
 722.5	22951
 723.0	22938
 723.5	22948
 724.0	22917
 724.5	22905
 725.0	22935
 725.6	22864
 726.1	22919
 726.6	23039
 727.1	22972
 727.6	23013
 728.1	23033
 728.6	22986
 729.1	22974
 729.7	22966
 730.2	22989
 730.7	23018
 731.2	23053
 731.7	23041
 732.2	23050
 732.7	23029
 733.2	23074
 733.8	23043
 734.3	23059
 734.8	23036
 735.3	23059
 735.8	23051
 736.3	23028
 736.8	23067
 737.3	23110
 737.8	23059
 738.4	23051
 738.9	23012
 739.4	23101
 739.9	23085
 740.4	23098
 740.9	23078
 741.4	23078
 741.9	23069
 742.4	23091
 742.9	23073
 743.4	23149
 744.0	23069
 744.5	23061
 745.0	23067
 745.5	23141
 746.0	23116
 746.5	23117
 747.0	23061
 747.5	23042
 748.0	23006
 748.5	23025
 749.0	23038
 749.5	23123
 750.0	22956
 750.5	23004
 751.1	23006
 751.6	23003
 752.1	22991
 752.6	22955
 753.1	22976
 753.6	22910
 754.1	22868
 754.6	22910
 755.1	22860
 755.6	22863
 756.1	22784
 756.6	22868
 757.1	22828
 757.6	22811
 758.1	22765
 758.6	22770
 759.1	22693
 759.6	22725
 760.1	22661
 760.7	22627
 761.2	22687
 761.7	22627
 762.2	22611
 762.7	22652
 763.2	22505
 763.7	22585
 764.2	22515
 764.7	22508
 765.2	22530
 765.7	22492
 766.2	22444
 766.7	22481
 767.2	22418
 767.7	22417
 768.2	22393
 768.7	22349
 769.2	22338
 769.7	22375
 770.2	22338
 770.7	22333
 771.2	22307
 771.7	22275
 772.2	22285
 772.7	22316
 773.2	22292
 773.7	22243
 774.2	22190
 774.7	22231
 775.2	22213
 775.7	22189
 776.2	22173
 776.7	22203
 777.2	22122
 777.7	22196
 778.2	22172
 778.7	22208
 779.2	22215
 779.7	22237
 780.2	22079
 780.7	22145
 781.2	22145
 781.7	22211
 782.2	22135
 782.6	22200
 783.1	22202
 783.6	22165
 784.1	22132
 784.6	22121
 785.1	22127
 785.6	22120
 786.1	22147
 786.6	22160
 787.1	22101
 787.6	22105
 788.1	22095
 788.6	22078
 789.1	22071
 789.6	22100
 790.1	22111
 790.6	22112
 791.1	22005
 791.6	22008
 792.0	22024
 792.5	22055
 793.0	22034
 793.5	22023
 794.0	21954
 794.5	22042
 795.0	22015
 795.5	21979
 796.0	21981
 796.5	21930
 797.0	21941
 797.5	21979
 798.0	21823
 798.4	21858
 798.9	21833
 799.4	21843
 799.9	21837
 800.4	21701
 800.9	21790
 801.4	21839
 801.9	21787
 802.4	21707
 802.9	21761
 803.3	21746
 803.8	21709
 804.3	21645
 804.8	21700
 805.3	21641
 805.8	21618
 806.3	21610
 806.8	21583
 807.2	21570
 807.7	21528
 808.2	21545
 808.7	21455
 809.2	21451
 809.7	21385
 810.2	21433
 810.7	21367
 811.1	21375
 811.6	21365
 812.1	21311
 812.6	21262
 813.1	21300
 813.6	21313
 814.1	21281
 814.5	21233
 815.0	21245
 815.5	21201
 816.0	21153
 816.5	21210
 817.0	21152
 817.4	21131
 817.9	21153
 818.4	21082
 818.9	21154
 819.4	21105
 819.9	21078
 820.3	21039
 820.8	21040
 821.3	21034
 821.8	21053
 822.3	20980
 822.7	20953
 823.2	21007
 823.7	20963
 824.2	20956
 824.7	20930
 825.2	20944
 825.6	20918
 826.1	20907
 826.6	20955
 827.1	20931
 827.6	20928
 828.0	20856
 828.5	20831
 829.0	20867
 829.5	20803
 829.9	20805
 830.4	20865
 830.9	20836
 831.4	20859
 831.9	20816
 832.3	20892
 832.8	20831
 833.3	20823
 833.8	20901
 834.2	20889
 834.7	20734
 835.2	20823
 835.7	20826
 836.1	20807
 836.6	20793
 837.1	20795
 837.6	20801
 838.0	20831
 838.5	20854
 839.0	20851
 839.5	20838
 839.9	20759
 840.4	20763
 840.9	20733
 841.4	20767
 841.8	20788
 842.3	20796
 842.8	20811
 843.3	20805
 843.7	20702
 844.2	20692
 844.7	20774
 845.1	20739
 845.6	20662
 846.1	20683
 846.6	20713
 847.0	20610
 847.5	20657
 848.0	20639
 848.4	20676
 848.9	20639
 849.4	20619
 849.8	20637
 850.3	20633
 850.8	20671
 851.3	20631
 851.7	20618
 852.2	20622
 852.7	20611
 853.1	20584
 853.6	20539
 854.1	20569
 854.5	20535
 855.0	20515
 855.5	20504
 855.9	20565
 856.4	20551
 856.9	20458
 857.3	20506
 857.8	20474
 858.3	20509
 858.7	20463
 859.2	20478
 859.7	20469
 860.1	20519
 860.6	20495
 861.1	20431
 861.5	20468
 862.0	20476
 862.4	20443
 862.9	20403
 863.4	20437
 863.8	20439
 864.3	20428
 864.8	20347
 865.2	20393
 865.7	20410
 866.1	20415
 866.6	20335
 867.1	20407
 867.5	20385
 868.0	20358
 868.5	20303
 868.9	20303
 869.4	20403
 869.8	20349
 870.3	20303
 870.8	20371
 871.2	20326
 871.7	20316
 872.1	20271
 872.6	20332
 873.0	20306
 873.5	20389
 874.0	20380
 874.4	20277
 874.9	20312
 875.3	20263
 875.8	20163
 876.2	19953
 876.7	19801
 877.2	19464
 877.6	19051
 878.1	18654
