#xlabel Wavelength (nm)
#ylabel Spectrometer Array Counts
#title Exposure time is 10000 ms
## lambda	counts
 349.8	17500
 350.3	17776
 350.8	18040
 351.3	18228
 351.9	18337
 352.4	18455
 352.9	18527
 353.4	18492
 354.0	18489
 354.5	18524
 355.0	18531
 355.5	18545
 356.0	18506
 356.6	18474
 357.1	18519
 357.6	18499
 358.1	18530
 358.7	18474
 359.2	18489
 359.7	18512
 360.2	18548
 360.8	18515
 361.3	18611
 361.8	18565
 362.3	18594
 362.9	18556
 363.4	18632
 363.9	18637
 364.4	18665
 364.9	18574
 365.5	18657
 366.0	18638
 366.5	18599
 367.0	18645
 367.6	18670
 368.1	18679
 368.6	18615
 369.1	18677
 369.7	18733
 370.2	18655
 370.7	18660
 371.2	18711
 371.8	18770
 372.3	18689
 372.8	18777
 373.3	18796
 373.9	18742
 374.4	18769
 374.9	18820
 375.5	18718
 376.0	18849
 376.5	18820
 377.0	18847
 377.6	18797
 378.1	18886
 378.6	18824
 379.1	18834
 379.7	18830
 380.2	18901
 380.7	18916
 381.2	18878
 381.8	18873
 382.3	18925
 382.8	18915
 383.4	18963
 383.9	18917
 384.4	19071
 384.9	18990
 385.5	19010
 386.0	19019
 386.5	19091
 387.1	19028
 387.6	19055
 388.1	19064
 388.6	19085
 389.2	19083
 389.7	19112
 390.2	19099
 390.8	19204
 391.3	19185
 391.8	19195
 392.3	19192
 392.9	19205
 393.4	19209
 393.9	19292
 394.5	19306
 395.0	19272
 395.5	19307
 396.0	19312
 396.6	19294
 397.1	19393
 397.6	19397
 398.2	19402
 398.7	19415
 399.2	19512
 399.8	19387
 400.3	19466
 400.8	19514
 401.3	19491
 401.9	19515
 402.4	19538
 402.9	19537
 403.5	19573
 404.0	19574
 404.5	19537
 405.1	19558
 405.6	19667
 406.1	19657
 406.7	19679
 407.2	19700
 407.7	19796
 408.2	19807
 408.8	19822
 409.3	19871
 409.8	19934
 410.4	19912
 410.9	19930
 411.4	19900
 412.0	19971
 412.5	20035
 413.0	20002
 413.6	20055
 414.1	20027
 414.6	20075
 415.2	20130
 415.7	20082
 416.2	20145
 416.8	20147
 417.3	20145
 417.8	20178
 418.4	20283
 418.9	20230
 419.4	20373
 420.0	20275
 420.5	20353
 421.0	20309
 421.5	20407
 422.1	20394
 422.6	20460
 423.1	20497
 423.7	20477
 424.2	20476
 424.7	20522
 425.3	20505
 425.8	20537
 426.3	20531
 426.9	20605
 427.4	20558
 427.9	20685
 428.5	20641
 429.0	20695
 429.6	20671
 430.1	20775
 430.6	20800
 431.2	20774
 431.7	20899
 432.2	20898
 432.8	20898
 433.3	21041
 433.8	21074
 434.4	21072
 434.9	21120
 435.4	21199
 436.0	21207
 436.5	21227
 437.0	21319
 437.6	21315
 438.1	21384
 438.6	21401
 439.2	21441
 439.7	21435
 440.2	21391
 440.8	21428
 441.3	21429
 441.8	21442
 442.4	21411
 442.9	21439
 443.5	21477
 444.0	21474
 444.5	21502
 445.1	21429
 445.6	21472
 446.1	21520
 446.7	21558
 447.2	21589
 447.7	21605
 448.3	21701
 448.8	21693
 449.3	21765
 449.9	21751
 450.4	21897
 450.9	21973
 451.5	22017
 452.0	22038
 452.6	22105
 453.1	22207
 453.6	22255
 454.2	22195
 454.7	22312
 455.2	22369
 455.8	22445
 456.3	22427
 456.8	22568
 457.4	22531
 457.9	22552
 458.5	22613
 459.0	22586
 459.5	22636
 460.1	22596
 460.6	22647
 461.1	22640
 461.7	22689
 462.2	22642
 462.7	22690
 463.3	22625
 463.8	22697
 464.4	22770
 464.9	22724
 465.4	22807
 466.0	22734
 466.5	22819
 467.0	22784
 467.6	22862
 468.1	22974
 468.7	22940
 469.2	22907
 469.7	23030
 470.3	23047
 470.8	23117
 471.3	23132
 471.9	23134
 472.4	23211
 473.0	23286
 473.5	23341
 474.0	23361
 474.6	23402
 475.1	23427
 475.6	23533
 476.2	23567
 476.7	23567
 477.3	23647
 477.8	23622
 478.3	23572
 478.9	23798
 479.4	23723
 479.9	23759
 480.5	23775
 481.0	23833
 481.6	23885
 482.1	23979
 482.6	23992
 483.2	24045
 483.7	24180
 484.2	24158
 484.8	24039
 485.3	24158
 485.9	24263
 486.4	24263
 486.9	24315
 487.5	24298
 488.0	24343
 488.6	24423
 489.1	24464
 489.6	24539
 490.2	24555
 490.7	24540
 491.2	24523
 491.8	24598
 492.3	24567
 492.9	24621
 493.4	24643
 493.9	24663
 494.5	24668
 495.0	24725
 495.6	24651
 496.1	24658
 496.6	24708
 497.2	24631
 497.7	24599
 498.2	24675
 498.8	24693
 499.3	24618
 499.9	24670
 500.4	24682
 500.9	24684
 501.5	24693
 502.0	24796
 502.6	24802
 503.1	24927
 503.6	24935
 504.2	24939
 504.7	24996
 505.2	25113
 505.8	25149
 506.3	25300
 506.9	25380
 507.4	25419
 507.9	25463
 508.5	25567
 509.0	25685
 509.6	25822
 510.1	25857
 510.6	25959
 511.2	26045
 511.7	26103
 512.2	26212
 512.8	26300
 513.3	26316
 513.9	26343
 514.4	26440
 514.9	26541
 515.5	26465
 516.0	26547
 516.6	26513
 517.1	26553
 517.6	26527
 518.2	26504
 518.7	26406
 519.3	26440
 519.8	26444
 520.3	26411
 520.9	26346
 521.4	26328
 521.9	26347
 522.5	26241
 523.0	26227
 523.6	26245
 524.1	26096
 524.6	26125
 525.2	26145
 525.7	26193
 526.3	26136
 526.8	26237
 527.3	26207
 527.9	26251
 528.4	26273
 528.9	26358
 529.5	26415
 530.0	26447
 530.6	26543
 531.1	26603
 531.6	26585
 532.2	26755
 532.7	26787
 533.3	26896
 533.8	27085
 534.3	27199
 534.9	27263
 535.4	27294
 536.0	27435
 536.5	27543
 537.0	27581
 537.6	27669
 538.1	27784
 538.6	27862
 539.2	27859
 539.7	27936
 540.3	28073
 540.8	28089
 541.3	28082
 541.9	28147
 542.4	28168
 543.0	28253
 543.5	28227
 544.0	28214
 544.6	28247
 545.1	28277
 545.6	28301
 546.2	28286
 546.7	28187
 547.3	28245
 547.8	28219
 548.3	28249
 548.9	28161
 549.4	28155
 550.0	28115
 550.5	28171
 551.0	28200
 551.6	28146
 552.1	28149
 552.6	28160
 553.2	28105
 553.7	28091
 554.3	28129
 554.8	28207
 555.3	28073
 555.9	28150
 556.4	28140
 556.9	28257
 557.5	28300
 558.0	28283
 558.6	28286
 559.1	28376
 559.6	28385
 560.2	28425
 560.7	28459
 561.3	28459
 561.8	28470
 562.3	28620
 562.9	28631
 563.4	28695
 563.9	28711
 564.5	28742
 565.0	28749
 565.6	28794
 566.1	28811
 566.6	28822
 567.2	28823
 567.7	28929
 568.2	28877
 568.8	28885
 569.3	28883
 569.9	28948
 570.4	28935
 570.9	28929
 571.5	28935
 572.0	28945
 572.5	29009
 573.1	28979
 573.6	29051
 574.1	29055
 574.7	29079
 575.2	29079
 575.8	29142
 576.3	29249
 576.8	29237
 577.4	29279
 577.9	29330
 578.4	29339
 579.0	29387
 579.5	29523
 580.1	29480
 580.6	29547
 581.1	29658
 581.7	29718
 582.2	29710
 582.7	29779
 583.3	29850
 583.8	29868
 584.3	29850
 584.9	29938
 585.4	29966
 586.0	29977
 586.5	30041
 587.0	30043
 587.6	30138
 588.1	30117
 588.6	30194
 589.2	30155
 589.7	30188
 590.2	30187
 590.8	30174
 591.3	30197
 591.9	30143
 592.4	30180
 592.9	30099
 593.5	30078
 594.0	30044
 594.5	30032
 595.1	29979
 595.6	29922
 596.1	29944
 596.7	29881
 597.2	29895
 597.7	29803
 598.3	29789
 598.8	29741
 599.3	29707
 599.9	29639
 600.4	29613
 601.0	29603
 601.5	29576
 602.0	29548
 602.6	29498
 603.1	29514
 603.6	29507
 604.2	29603
 604.7	29527
 605.2	29607
 605.8	29541
 606.3	29584
 606.8	29665
 607.4	29676
 607.9	29744
 608.4	29722
 609.0	29793
 609.5	29860
 610.0	29873
 610.6	29994
 611.1	29958
 611.6	30041
 612.2	30084
 612.7	30183
 613.2	30217
 613.8	30206
 614.3	30290
 614.8	30376
 615.4	30391
 615.9	30531
 616.4	30649
 617.0	30662
 617.5	30794
 618.0	30881
 618.6	30907
 619.1	31014
 619.6	31151
 620.2	31249
 620.7	31385
 621.2	31441
 621.8	31541
 622.3	31638
 622.8	31678
 623.4	31763
 623.9	31871
 624.4	31881
 625.0	31919
 625.5	31942
 626.0	31967
 626.6	32035
 627.1	32016
 627.6	31966
 628.2	31935
 628.7	31980
 629.2	31955
 629.8	31959
 630.3	31937
 630.8	31899
 631.4	31835
 631.9	31806
 632.4	31662
 632.9	31629
 633.5	31575
 634.0	31491
 634.5	31495
 635.1	31384
 635.6	31337
 636.1	31269
 636.7	31234
 637.2	31193
 637.7	31050
 638.3	31105
 638.8	31045
 639.3	31027
 639.8	30926
 640.4	30919
 640.9	30909
 641.4	30809
 642.0	30758
 642.5	30754
 643.0	30715
 643.6	30793
 644.1	30735
 644.6	30751
 645.1	30754
 645.7	30759
 646.2	30713
 646.7	30743
 647.3	30771
 647.8	30799
 648.3	30780
 648.9	30844
 649.4	30777
 649.9	30860
 650.4	30899
 651.0	30974
 651.5	31015
 652.0	31095
 652.6	31086
 653.1	31192
 653.6	31139
 654.1	31235
 654.7	31242
 655.2	31354
 655.7	31430
 656.3	31476
 656.8	31469
 657.3	31556
 657.8	31543
 658.4	31585
 658.9	31634
 659.4	31727
 659.9	31755
 660.5	31751
 661.0	31816
 661.5	31873
 662.1	31859
 662.6	31886
 663.1	31859
 663.6	31953
 664.2	31911
 664.7	31897
 665.2	31847
 665.7	31951
 666.3	31907
 666.8	31903
 667.3	31908
 667.8	31876
 668.4	31883
 668.9	31881
 669.4	31847
 669.9	31861
 670.5	31785
 671.0	31789
 671.5	31736
 672.0	31773
 672.6	31748
 673.1	31771
 673.6	31668
 674.1	31682
 674.7	31657
 675.2	31685
 675.7	31549
 676.2	31528
 676.8	31573
 677.3	31563
 677.8	31479
 678.3	31557
 678.9	31487
 679.4	31409
 679.9	31455
 680.4	31443
 681.0	31390
 681.5	31410
 682.0	31348
 682.5	31383
 683.1	31276
 683.6	31298
 684.1	31236
 684.6	31317
 685.1	31259
 685.7	31267
 686.2	31238
 686.7	31190
 687.2	31183
 687.8	31234
 688.3	31179
 688.8	31194
 689.3	31137
 689.8	31171
 690.4	31157
 690.9	31170
 691.4	31195
 691.9	31198
 692.4	31183
 693.0	31242
 693.5	31205
 694.0	31206
 694.5	31193
 695.1	31179
 695.6	31147
 696.1	31217
 696.6	31207
 697.1	31225
 697.7	31249
 698.2	31179
 698.7	31211
 699.2	31172
 699.7	31177
 700.3	31133
 700.8	31108
 701.3	31183
 701.8	31140
 702.3	31085
 702.8	31081
 703.4	31066
 703.9	31032
 704.4	30994
 704.9	30954
 705.4	30941
 706.0	30991
 706.5	30958
 707.0	30864
 707.5	30831
 708.0	30841
 708.5	30765
 709.1	30812
 709.6	30759
 710.1	30693
 710.6	30657
 711.1	30630
 711.7	30623
 712.2	30599
 712.7	30587
 713.2	30548
 713.7	30535
 714.2	30483
 714.8	30559
 715.3	30498
 715.8	30487
 716.3	30487
 716.8	30407
 717.3	30395
 717.8	30482
 718.4	30497
 718.9	30435
 719.4	30519
 719.9	30427
 720.4	30476
 720.9	30495
 721.4	30490
 722.0	30517
 722.5	30516
 723.0	30512
 723.5	30531
 724.0	30509
 724.5	30502
 725.0	30541
 725.6	30481
 726.1	30544
 726.6	30651
 727.1	30606
 727.6	30649
 728.1	30673
 728.6	30633
 729.1	30637
 729.7	30617
 730.2	30644
 730.7	30678
 731.2	30708
 731.7	30694
 732.2	30716
 732.7	30689
 733.2	30727
 733.8	30690
 734.3	30731
 734.8	30721
 735.3	30767
 735.8	30770
 736.3	30762
 736.8	30813
 737.3	30874
 737.8	30833
 738.4	30837
 738.9	30800
 739.4	30895
 739.9	30879
 740.4	30913
 740.9	30885
 741.4	30884
 741.9	30883
 742.4	30896
 742.9	30878
 743.4	30942
 744.0	30848
 744.5	30831
 745.0	30831
 745.5	30882
 746.0	30845
 746.5	30845
 747.0	30776
 747.5	30742
 748.0	30706
 748.5	30710
 749.0	30700
 749.5	30763
 750.0	30591
 750.5	30610
 751.1	30586
 751.6	30565
 752.1	30519
 752.6	30471
 753.1	30485
 753.6	30401
 754.1	30343
 754.6	30345
 755.1	30273
 755.6	30252
 756.1	30142
 756.6	30195
 757.1	30139
 757.6	30093
 758.1	30020
 758.6	29983
 759.1	29880
 759.6	29879
 760.1	29797
 760.7	29711
 761.2	29758
 761.7	29679
 762.2	29632
 762.7	29635
 763.2	29489
 763.7	29524
 764.2	29419
 764.7	29379
 765.2	29365
 765.7	29287
 766.2	29221
 766.7	29207
 767.2	29116
 767.7	29070
 768.2	29018
 768.7	28942
 769.2	28899
 769.7	28893
 770.2	28839
 770.7	28818
 771.2	28758
 771.7	28710
 772.2	28697
 772.7	28716
 773.2	28659
 773.7	28590
 774.2	28525
 774.7	28541
 775.2	28494
 775.7	28466
 776.2	28430
 776.7	28446
 777.2	28349
 777.7	28395
 778.2	28361
 778.7	28383
 779.2	28377
 779.7	28386
 780.2	28225
 780.7	28269
 781.2	28254
 781.7	28301
 782.2	28226
 782.6	28279
 783.1	28265
 783.6	28228
 784.1	28177
 784.6	28162
 785.1	28171
 785.6	28161
 786.1	28166
 786.6	28166
 787.1	28113
 787.6	28088
 788.1	28070
 788.6	28046
 789.1	28021
 789.6	28025
 790.1	28027
 790.6	28003
 791.1	27898
 791.6	27875
 792.0	27863
 792.5	27870
 793.0	27821
 793.5	27797
 794.0	27715
 794.5	27768
 795.0	27702
 795.5	27670
 796.0	27634
 796.5	27559
 797.0	27536
 797.5	27541
 798.0	27359
 798.4	27359
 798.9	27300
 799.4	27269
 799.9	27237
 800.4	27067
 800.9	27117
 801.4	27117
 801.9	27031
 802.4	26907
 802.9	26916
 803.3	26863
 803.8	26786
 804.3	26696
 804.8	26698
 805.3	26612
 805.8	26538
 806.3	26481
 806.8	26415
 807.2	26361
 807.7	26291
 808.2	26264
 808.7	26145
 809.2	26099
 809.7	25991
 810.2	26010
 810.7	25908
 811.1	25868
 811.6	25827
 812.1	25734
 812.6	25653
 813.1	25658
 813.6	25637
 814.1	25584
 814.5	25503
 815.0	25488
 815.5	25398
 816.0	25329
 816.5	25350
 817.0	25265
 817.4	25219
 817.9	25209
 818.4	25109
 818.9	25161
 819.4	25082
 819.9	25032
 820.3	24975
 820.8	24947
 821.3	24921
 821.8	24905
 822.3	24817
 822.7	24771
 823.2	24803
 823.7	24741
 824.2	24722
 824.7	24671
 825.2	24661
 825.6	24615
 826.1	24585
 826.6	24617
 827.1	24576
 827.6	24554
 828.0	24477
 828.5	24436
 829.0	24453
 829.5	24381
 829.9	24367
 830.4	24403
 830.9	24362
 831.4	24378
 831.9	24321
 832.3	24375
 832.8	24301
 833.3	24291
 833.8	24349
 834.2	24335
 834.7	24167
 835.2	24243
 835.7	24236
 836.1	24214
 836.6	24180
 837.1	24176
 837.6	24165
 838.0	24189
 838.5	24196
 839.0	24188
 839.5	24167
 839.9	24081
 840.4	24077
 840.9	24037
 841.4	24055
 841.8	24073
 842.3	24070
 842.8	24069
 843.3	24052
 843.7	23946
 844.2	23921
 844.7	23984
 845.1	23948
 845.6	23861
 846.1	23874
 846.6	23899
 847.0	23792
 847.5	23823
 848.0	23786
 848.4	23808
 848.9	23755
 849.4	23715
 849.8	23717
 850.3	23707
 850.8	23731
 851.3	23670
 851.7	23654
 852.2	23635
 852.7	23618
 853.1	23582
 853.6	23509
 854.1	23529
 854.5	23483
 855.0	23449
 855.5	23426
 855.9	23462
 856.4	23429
 856.9	23331
 857.3	23363
 857.8	23302
 858.3	23308
 858.7	23241
 859.2	23251
 859.7	23239
 860.1	23287
 860.6	23249
 861.1	23167
 861.5	23192
 862.0	23173
 862.4	23130
 862.9	23074
 863.4	23099
 863.8	23084
 864.3	23055
 864.8	22963
 865.2	22990
 865.7	22991
 866.1	22986
 866.6	22891
 867.1	22943
 867.5	22911
 868.0	22871
 868.5	22807
 868.9	22783
 869.4	22861
 869.8	22802
 870.3	22737
 870.8	22791
 871.2	22734
 871.7	22710
 872.1	22641
 872.6	22676
 873.0	22637
 873.5	22703
 874.0	22681
 874.4	22564
 874.9	22585
 875.3	22537
 875.8	22422
 876.2	22197
 876.7	22020
 877.2	21642
 877.6	21164
 878.1	20675
