#xlabel Wavelength (nm)
#ylabel Spectrometer Array Counts
#title Exposure time is 10000 ms
## lambda	counts
 349.8	17591
 350.3	17886
 350.8	18125
 351.3	18275
 351.9	18332
 352.4	18405
 352.9	18447
 353.4	18383
 354.0	18376
 354.5	18412
 355.0	18421
 355.5	18440
 356.0	18403
 356.6	18378
 357.1	18429
 357.6	18411
 358.1	18441
 358.7	18385
 359.2	18398
 359.7	18423
 360.2	18461
 360.8	18426
 361.3	18522
 361.8	18464
 362.3	18493
 362.9	18447
 363.4	18529
 363.9	18530
 364.4	18557
 364.9	18467
 365.5	18542
 366.0	18527
 366.5	18487
 367.0	18530
 367.6	18560
 368.1	18566
 368.6	18507
 369.1	18565
 369.7	18619
 370.2	18540
 370.7	18549
 371.2	18594
 371.8	18653
 372.3	18580
 372.8	18656
 373.3	18673
 373.9	18622
 374.4	18645
 374.9	18699
 375.5	18597
 376.0	18729
 376.5	18698
 377.0	18721
 377.6	18675
 378.1	18760
 378.6	18706
 379.1	18711
 379.7	18694
 380.2	18779
 380.7	18787
 381.2	18749
 381.8	18747
 382.3	18799
 382.8	18779
 383.4	18836
 383.9	18792
 384.4	18947
 384.9	18859
 385.5	18881
 386.0	18891
 386.5	18971
 387.1	18903
 387.6	18929
 388.1	18937
 388.6	18957
 389.2	18955
 389.7	18985
 390.2	18975
 390.8	19072
 391.3	19057
 391.8	19064
 392.3	19062
 392.9	19073
 393.4	19071
 393.9	19154
 394.5	19173
 395.0	19137
 395.5	19166
 396.0	19173
 396.6	19158
 397.1	19257
 397.6	19258
 398.2	19268
 398.7	19273
 399.2	19373
 399.8	19256
 400.3	19327
 400.8	19379
 401.3	19358
 401.9	19379
 402.4	19404
 402.9	19405
 403.5	19445
 404.0	19444
 404.5	19403
 405.1	19425
 405.6	19533
 406.1	19523
 406.7	19541
 407.2	19563
 407.7	19658
 408.2	19667
 408.8	19674
 409.3	19726
 409.8	19786
 410.4	19761
 410.9	19778
 411.4	19742
 412.0	19817
 412.5	19878
 413.0	19841
 413.6	19894
 414.1	19874
 414.6	19914
 415.2	19965
 415.7	19919
 416.2	19978
 416.8	19970
 417.3	19975
 417.8	20007
 418.4	20106
 418.9	20058
 419.4	20202
 420.0	20098
 420.5	20178
 421.0	20133
 421.5	20225
 422.1	20212
 422.6	20277
 423.1	20315
 423.7	20294
 424.2	20285
 424.7	20330
 425.3	20317
 425.8	20347
 426.3	20343
 426.9	20416
 427.4	20369
 427.9	20489
 428.5	20444
 429.0	20500
 429.6	20469
 430.1	20572
 430.6	20592
 431.2	20563
 431.7	20686
 432.2	20682
 432.8	20685
 433.3	20820
 433.8	20851
 434.4	20853
 434.9	20889
 435.4	20967
 436.0	20968
 436.5	20982
 437.0	21075
 437.6	21071
 438.1	21136
 438.6	21152
 439.2	21195
 439.7	21185
 440.2	21145
 440.8	21176
 441.3	21181
 441.8	21192
 442.4	21160
 442.9	21192
 443.5	21229
 444.0	21228
 444.5	21255
 445.1	21182
 445.6	21223
 446.1	21266
 446.7	21293
 447.2	21333
 447.7	21342
 448.3	21436
 448.8	21427
 449.3	21499
 449.9	21480
 450.4	21617
 450.9	21689
 451.5	21732
 452.0	21747
 452.6	21801
 453.1	21904
 453.6	21947
 454.2	21884
 454.7	21995
 455.2	22052
 455.8	22122
 456.3	22097
 456.8	22240
 457.4	22193
 457.9	22218
 458.5	22275
 459.0	22247
 459.5	22297
 460.1	22261
 460.6	22306
 461.1	22302
 461.7	22351
 462.2	22301
 462.7	22345
 463.3	22282
 463.8	22350
 464.4	22426
 464.9	22381
 465.4	22459
 466.0	22386
 466.5	22467
 467.0	22427
 467.6	22513
 468.1	22617
 468.7	22578
 469.2	22542
 469.7	22667
 470.3	22669
 470.8	22739
 471.3	22750
 471.9	22747
 472.4	22824
 473.0	22894
 473.5	22941
 474.0	22968
 474.6	23004
 475.1	23029
 475.6	23132
 476.2	23157
 476.7	23157
 477.3	23235
 477.8	23203
 478.3	23154
 478.9	23377
 479.4	23290
 479.9	23327
 480.5	23343
 481.0	23393
 481.6	23443
 482.1	23539
 482.6	23550
 483.2	23596
 483.7	23727
 484.2	23699
 484.8	23573
 485.3	23697
 485.9	23798
 486.4	23789
 486.9	23839
 487.5	23821
 488.0	23864
 488.6	23941
 489.1	23979
 489.6	24045
 490.2	24066
 490.7	24046
 491.2	24027
 491.8	24097
 492.3	24065
 492.9	24121
 493.4	24138
 493.9	24161
 494.5	24166
 495.0	24223
 495.6	24150
 496.1	24161
 496.6	24207
 497.2	24125
 497.7	24091
 498.2	24172
 498.8	24192
 499.3	24116
 499.9	24169
 500.4	24177
 500.9	24172
 501.5	24182
 502.0	24281
 502.6	24289
 503.1	24403
 503.6	24411
 504.2	24407
 504.7	24454
 505.2	24564
 505.8	24597
 506.3	24753
 506.9	24812
 507.4	24844
 507.9	24885
 508.5	24981
 509.0	25084
 509.6	25223
 510.1	25247
 510.6	25339
 511.2	25422
 511.7	25470
 512.2	25579
 512.8	25658
 513.3	25665
 513.9	25691
 514.4	25777
 514.9	25882
 515.5	25801
 516.0	25885
 516.6	25847
 517.1	25893
 517.6	25859
 518.2	25830
 518.7	25749
 519.3	25783
 519.8	25784
 520.3	25750
 520.9	25695
 521.4	25674
 521.9	25696
 522.5	25592
 523.0	25580
 523.6	25602
 524.1	25450
 524.6	25489
 525.2	25508
 525.7	25552
 526.3	25490
 526.8	25595
 527.3	25559
 527.9	25605
 528.4	25615
 528.9	25700
 529.5	25754
 530.0	25780
 530.6	25873
 531.1	25930
 531.6	25893
 532.2	26068
 532.7	26091
 533.3	26190
 533.8	26372
 534.3	26471
 534.9	26533
 535.4	26557
 536.0	26683
 536.5	26785
 537.0	26821
 537.6	26900
 538.1	27010
 538.6	27073
 539.2	27074
 539.7	27137
 540.3	27269
 540.8	27283
 541.3	27267
 541.9	27323
 542.4	27347
 543.0	27427
 543.5	27408
 544.0	27395
 544.6	27430
 545.1	27451
 545.6	27475
 546.2	27463
 546.7	27365
 547.3	27430
 547.8	27394
 548.3	27428
 548.9	27338
 549.4	27331
 550.0	27295
 550.5	27349
 551.0	27379
 551.6	27324
 552.1	27337
 552.6	27344
 553.2	27294
 553.7	27273
 554.3	27313
 554.8	27387
 555.3	27251
 555.9	27327
 556.4	27317
 556.9	27431
 557.5	27472
 558.0	27450
 558.6	27453
 559.1	27536
 559.6	27551
 560.2	27587
 560.7	27614
 561.3	27611
 561.8	27618
 562.3	27764
 562.9	27775
 563.4	27838
 563.9	27841
 564.5	27876
 565.0	27882
 565.6	27915
 566.1	27937
 566.6	27949
 567.2	27945
 567.7	28050
 568.2	27990
 568.8	28010
 569.3	28003
 569.9	28068
 570.4	28049
 570.9	28043
 571.5	28046
 572.0	28053
 572.5	28122
 573.1	28084
 573.6	28158
 574.1	28155
 574.7	28176
 575.2	28178
 575.8	28233
 576.3	28337
 576.8	28330
 577.4	28365
 577.9	28407
 578.4	28413
 579.0	28449
 579.5	28588
 580.1	28546
 580.6	28599
 581.1	28710
 581.7	28767
 582.2	28753
 582.7	28825
 583.3	28885
 583.8	28895
 584.3	28881
 584.9	28966
 585.4	28981
 586.0	28993
 586.5	29055
 587.0	29051
 587.6	29143
 588.1	29117
 588.6	29194
 589.2	29155
 589.7	29186
 590.2	29186
 590.8	29173
 591.3	29198
 591.9	29139
 592.4	29178
 592.9	29102
 593.5	29079
 594.0	29053
 594.5	29049
 595.1	28990
 595.6	28938
 596.1	28965
 596.7	28909
 597.2	28918
 597.7	28831
 598.3	28825
 598.8	28773
 599.3	28754
 599.9	28687
 600.4	28662
 601.0	28650
 601.5	28623
 602.0	28607
 602.6	28549
 603.1	28567
 603.6	28567
 604.2	28656
 604.7	28583
 605.2	28663
 605.8	28596
 606.3	28629
 606.8	28712
 607.4	28723
 607.9	28792
 608.4	28764
 609.0	28829
 609.5	28895
 610.0	28907
 610.6	29022
 611.1	28979
 611.6	29063
 612.2	29097
 612.7	29180
 613.2	29227
 613.8	29199
 614.3	29283
 614.8	29366
 615.4	29367
 615.9	29503
 616.4	29621
 617.0	29618
 617.5	29748
 618.0	29836
 618.6	29848
 619.1	29946
 619.6	30075
 620.2	30166
 620.7	30298
 621.2	30339
 621.8	30431
 622.3	30526
 622.8	30557
 623.4	30638
 623.9	30735
 624.4	30751
 625.0	30782
 625.5	30797
 626.0	30827
 626.6	30887
 627.1	30877
 627.6	30822
 628.2	30795
 628.7	30834
 629.2	30811
 629.8	30821
 630.3	30803
 630.8	30771
 631.4	30710
 631.9	30689
 632.4	30544
 632.9	30517
 633.5	30469
 634.0	30395
 634.5	30399
 635.1	30303
 635.6	30257
 636.1	30188
 636.7	30163
 637.2	30125
 637.7	29987
 638.3	30052
 638.8	29994
 639.3	29980
 639.8	29889
 640.4	29875
 640.9	29872
 641.4	29775
 642.0	29731
 642.5	29725
 643.0	29684
 643.6	29765
 644.1	29719
 644.6	29727
 645.1	29735
 645.7	29743
 646.2	29694
 646.7	29725
 647.3	29753
 647.8	29777
 648.3	29759
 648.9	29813
 649.4	29750
 649.9	29833
 650.4	29862
 651.0	29942
 651.5	29977
 652.0	30052
 652.6	30033
 653.1	30139
 653.6	30091
 654.1	30180
 654.7	30183
 655.2	30300
 655.7	30362
 656.3	30399
 656.8	30395
 657.3	30478
 657.8	30465
 658.4	30498
 658.9	30546
 659.4	30633
 659.9	30653
 660.5	30658
 661.0	30713
 661.5	30772
 662.1	30757
 662.6	30779
 663.1	30757
 663.6	30849
 664.2	30801
 664.7	30780
 665.2	30730
 665.7	30838
 666.3	30805
 666.8	30791
 667.3	30796
 667.8	30770
 668.4	30777
 668.9	30781
 669.4	30741
 669.9	30759
 670.5	30685
 671.0	30687
 671.5	30643
 672.0	30665
 672.6	30651
 673.1	30676
 673.6	30577
 674.1	30598
 674.7	30566
 675.2	30593
 675.7	30465
 676.2	30444
 676.8	30492
 677.3	30490
 677.8	30405
 678.3	30486
 678.9	30413
 679.4	30339
 679.9	30396
 680.4	30372
 681.0	30327
 681.5	30344
 682.0	30289
 682.5	30318
 683.1	30217
 683.6	30242
 684.1	30174
 684.6	30263
 685.1	30207
 685.7	30213
 686.2	30189
 686.7	30144
 687.2	30133
 687.8	30187
 688.3	30134
 688.8	30144
 689.3	30087
 689.8	30120
 690.4	30103
 690.9	30123
 691.4	30145
 691.9	30147
 692.4	30127
 693.0	30185
 693.5	30157
 694.0	30150
 694.5	30142
 695.1	30127
 695.6	30093
 696.1	30161
 696.6	30151
 697.1	30173
 697.7	30192
 698.2	30127
 698.7	30157
 699.2	30114
 699.7	30123
 700.3	30076
 700.8	30054
 701.3	30134
 701.8	30095
 702.3	30030
 702.8	30028
 703.4	30016
 703.9	29990
 704.4	29953
 704.9	29908
 705.4	29894
 706.0	29949
 706.5	29919
 707.0	29820
 707.5	29789
 708.0	29797
 708.5	29729
 709.1	29773
 709.6	29725
 710.1	29660
 710.6	29630
 711.1	29602
 711.7	29602
 712.2	29585
 712.7	29576
 713.2	29533
 713.7	29529
 714.2	29478
 714.8	29545
 715.3	29490
 715.8	29484
 716.3	29483
 716.8	29405
 717.3	29399
 717.8	29491
 718.4	29501
 718.9	29439
 719.4	29527
 719.9	29434
 720.4	29483
 720.9	29506
 721.4	29499
 722.0	29529
 722.5	29521
 723.0	29521
 723.5	29539
 724.0	29510
 724.5	29499
 725.0	29545
 725.6	29485
 726.1	29543
 726.6	29655
 727.1	29603
 727.6	29641
 728.1	29675
 728.6	29625
 729.1	29627
 729.7	29610
 730.2	29645
 730.7	29668
 731.2	29702
 731.7	29690
 732.2	29710
 732.7	29677
 733.2	29717
 733.8	29683
 734.3	29722
 734.8	29706
 735.3	29747
 735.8	29743
 736.3	29739
 736.8	29786
 737.3	29841
 737.8	29805
 738.4	29811
 738.9	29770
 739.4	29858
 739.9	29842
 740.4	29875
 740.9	29852
 741.4	29851
 741.9	29845
 742.4	29866
 742.9	29845
 743.4	29908
 744.0	29821
 744.5	29809
 745.0	29807
 745.5	29866
 746.0	29822
 746.5	29825
 747.0	29753
 747.5	29727
 748.0	29689
 748.5	29699
 749.0	29691
 749.5	29752
 750.0	29585
 750.5	29609
 751.1	29589
 751.6	29573
 752.1	29529
 752.6	29474
 753.1	29493
 753.6	29410
 754.1	29361
 754.6	29366
 755.1	29295
 755.6	29283
 756.1	29171
 756.6	29230
 757.1	29177
 757.6	29126
 758.1	29064
 758.6	29032
 759.1	28931
 759.6	28941
 760.1	28855
 760.7	28777
 761.2	28825
 761.7	28752
 762.2	28712
 762.7	28710
 763.2	28569
 763.7	28612
 764.2	28513
 764.7	28478
 765.2	28467
 765.7	28392
 766.2	28323
 766.7	28323
 767.2	28237
 767.7	28200
 768.2	28146
 768.7	28076
 769.2	28038
 769.7	28043
 770.2	27985
 770.7	27965
 771.2	27913
 771.7	27866
 772.2	27853
 772.7	27868
 773.2	27822
 773.7	27757
 774.2	27693
 774.7	27710
 775.2	27662
 775.7	27641
 776.2	27609
 776.7	27625
 777.2	27531
 777.7	27585
 778.2	27551
 778.7	27578
 779.2	27569
 779.7	27587
 780.2	27423
 780.7	27471
 781.2	27455
 781.7	27497
 782.2	27427
 782.6	27485
 783.1	27469
 783.6	27438
 784.1	27389
 784.6	27370
 785.1	27375
 785.6	27359
 786.1	27372
 786.6	27379
 787.1	27319
 787.6	27307
 788.1	27285
 788.6	27260
 789.1	27238
 789.6	27247
 790.1	27251
 790.6	27233
 791.1	27126
 791.6	27105
 792.0	27093
 792.5	27101
 793.0	27063
 793.5	27037
 794.0	26949
 794.5	27015
 795.0	26959
 795.5	26919
 796.0	26889
 796.5	26820
 797.0	26799
 797.5	26809
 798.0	26633
 798.4	26630
 798.9	26579
 799.4	26549
 799.9	26523
 800.4	26355
 800.9	26416
 801.4	26419
 801.9	26340
 802.4	26227
 802.9	26235
 803.3	26189
 803.8	26113
 804.3	26027
 804.8	26037
 805.3	25949
 805.8	25887
 806.3	25839
 806.8	25782
 807.2	25733
 807.7	25660
 808.2	25642
 808.7	25527
 809.2	25489
 809.7	25380
 810.2	25406
 810.7	25305
 811.1	25274
 811.6	25238
 812.1	25153
 812.6	25075
 813.1	25085
 813.6	25068
 814.1	25022
 814.5	24942
 815.0	24923
 815.5	24851
 816.0	24780
 816.5	24802
 817.0	24721
 817.4	24681
 817.9	24680
 818.4	24580
 818.9	24631
 819.4	24566
 819.9	24512
 820.3	24458
 820.8	24425
 821.3	24409
 821.8	24398
 822.3	24308
 822.7	24266
 823.2	24304
 823.7	24241
 824.2	24224
 824.7	24175
 825.2	24171
 825.6	24133
 826.1	24098
 826.6	24135
 827.1	24098
 827.6	24076
 828.0	24006
 828.5	23962
 829.0	23978
 829.5	23910
 829.9	23895
 830.4	23937
 830.9	23899
 831.4	23914
 831.9	23856
 832.3	23913
 832.8	23841
 833.3	23836
 833.8	23897
 834.2	23876
 834.7	23713
 835.2	23794
 835.7	23786
 836.1	23758
 836.6	23733
 837.1	23729
 837.6	23719
 838.0	23744
 838.5	23755
 839.0	23744
 839.5	23729
 839.9	23639
 840.4	23637
 840.9	23593
 841.4	23619
 841.8	23639
 842.3	23630
 842.8	23638
 843.3	23627
 843.7	23516
 844.2	23493
 844.7	23558
 845.1	23525
 845.6	23445
 846.1	23449
 846.6	23471
 847.0	23365
 847.5	23393
 848.0	23369
 848.4	23391
 848.9	23339
 849.4	23298
 849.8	23303
 850.3	23292
 850.8	23319
 851.3	23258
 851.7	23236
 852.2	23225
 852.7	23207
 853.1	23175
 853.6	23103
 854.1	23125
 854.5	23071
 855.0	23041
 855.5	23017
 855.9	23063
 856.4	23027
 856.9	22926
 857.3	22956
 857.8	22894
 858.3	22903
 858.7	22842
 859.2	22847
 859.7	22840
 860.1	22879
 860.6	22834
 861.1	22757
 861.5	22778
 862.0	22759
 862.4	22723
 862.9	22666
 863.4	22689
 863.8	22667
 864.3	22651
 864.8	22556
 865.2	22583
 865.7	22583
 866.1	22582
 866.6	22487
 867.1	22546
 867.5	22518
 868.0	22477
 868.5	22421
 868.9	22395
 869.4	22481
 869.8	22420
 870.3	22363
 870.8	22415
 871.2	22359
 871.7	22331
 872.1	22260
 872.6	22296
 873.0	22244
 873.5	22299
 874.0	22275
 874.4	22170
 874.9	22216
 875.3	22206
 875.8	22151
 876.2	22012
 876.7	21915
 877.2	21582
 877.6	21103
 878.1	20533
