#xlabel Wavelength (nm)
#ylabel Spectrometer Array Counts
#title Exposure time is 10000 ms
## lambda	counts
 349.8	17811
 350.3	18091
 350.8	18282
 351.3	18384
 351.9	18402
 352.4	18455
 352.9	18479
 353.4	18415
 354.0	18401
 354.5	18440
 355.0	18443
 355.5	18460
 356.0	18421
 356.6	18399
 357.1	18451
 357.6	18429
 358.1	18461
 358.7	18402
 359.2	18417
 359.7	18441
 360.2	18476
 360.8	18445
 361.3	18545
 361.8	18488
 362.3	18518
 362.9	18476
 363.4	18551
 363.9	18549
 364.4	18585
 364.9	18491
 365.5	18567
 366.0	18552
 366.5	18510
 367.0	18557
 367.6	18587
 368.1	18590
 368.6	18530
 369.1	18585
 369.7	18642
 370.2	18570
 370.7	18573
 371.2	18619
 371.8	18677
 372.3	18602
 372.8	18685
 373.3	18706
 373.9	18646
 374.4	18670
 374.9	18724
 375.5	18621
 376.0	18751
 376.5	18719
 377.0	18748
 377.6	18702
 378.1	18786
 378.6	18730
 379.1	18739
 379.7	18721
 380.2	18802
 380.7	18813
 381.2	18777
 381.8	18770
 382.3	18823
 382.8	18806
 383.4	18862
 383.9	18818
 384.4	18972
 384.9	18887
 385.5	18909
 386.0	18919
 386.5	18991
 387.1	18929
 387.6	18951
 388.1	18959
 388.6	18988
 389.2	18982
 389.7	19010
 390.2	19003
 390.8	19101
 391.3	19085
 391.8	19090
 392.3	19088
 392.9	19099
 393.4	19107
 393.9	19187
 394.5	19202
 395.0	19160
 395.5	19192
 396.0	19203
 396.6	19179
 397.1	19285
 397.6	19287
 398.2	19296
 398.7	19301
 399.2	19401
 399.8	19282
 400.3	19351
 400.8	19407
 401.3	19388
 401.9	19407
 402.4	19433
 402.9	19435
 403.5	19467
 404.0	19467
 404.5	19428
 405.1	19449
 405.6	19557
 406.1	19550
 406.7	19565
 407.2	19590
 407.7	19682
 408.2	19692
 408.8	19708
 409.3	19753
 409.8	19817
 410.4	19789
 410.9	19809
 411.4	19770
 412.0	19847
 412.5	19903
 413.0	19873
 413.6	19923
 414.1	19901
 414.6	19943
 415.2	20002
 415.7	19947
 416.2	20009
 416.8	20005
 417.3	20006
 417.8	20041
 418.4	20142
 418.9	20088
 419.4	20235
 420.0	20135
 420.5	20209
 421.0	20163
 421.5	20259
 422.1	20247
 422.6	20316
 423.1	20352
 423.7	20326
 424.2	20319
 424.7	20361
 425.3	20349
 425.8	20381
 426.3	20379
 426.9	20446
 427.4	20398
 427.9	20524
 428.5	20473
 429.0	20527
 429.6	20506
 430.1	20607
 430.6	20630
 431.2	20601
 431.7	20720
 432.2	20713
 432.8	20715
 433.3	20851
 433.8	20885
 434.4	20886
 434.9	20926
 435.4	21004
 436.0	21003
 436.5	21023
 437.0	21116
 437.6	21111
 438.1	21176
 438.6	21193
 439.2	21233
 439.7	21227
 440.2	21177
 440.8	21211
 441.3	21218
 441.8	21225
 442.4	21199
 442.9	21226
 443.5	21261
 444.0	21262
 444.5	21291
 445.1	21211
 445.6	21259
 446.1	21295
 446.7	21331
 447.2	21367
 447.7	21375
 448.3	21473
 448.8	21465
 449.3	21533
 449.9	21515
 450.4	21652
 450.9	21730
 451.5	21773
 452.0	21782
 452.6	21840
 453.1	21937
 453.6	21987
 454.2	21924
 454.7	22031
 455.2	22091
 455.8	22163
 456.3	22141
 456.8	22281
 457.4	22234
 457.9	22261
 458.5	22315
 459.0	22291
 459.5	22338
 460.1	22296
 460.6	22350
 461.1	22336
 461.7	22385
 462.2	22343
 462.7	22388
 463.3	22317
 463.8	22388
 464.4	22464
 464.9	22424
 465.4	22504
 466.0	22422
 466.5	22509
 467.0	22465
 467.6	22555
 468.1	22660
 468.7	22621
 469.2	22587
 469.7	22703
 470.3	22711
 470.8	22778
 471.3	22789
 471.9	22791
 472.4	22872
 473.0	22941
 473.5	22987
 474.0	23012
 474.6	23043
 475.1	23071
 475.6	23173
 476.2	23202
 476.7	23201
 477.3	23277
 477.8	23243
 478.3	23197
 478.9	23416
 479.4	23336
 479.9	23371
 480.5	23387
 481.0	23441
 481.6	23489
 482.1	23586
 482.6	23597
 483.2	23643
 483.7	23777
 484.2	23748
 484.8	23619
 485.3	23743
 485.9	23838
 486.4	23834
 486.9	23886
 487.5	23867
 488.0	23906
 488.6	23989
 489.1	24026
 489.6	24095
 490.2	24111
 490.7	24091
 491.2	24079
 491.8	24146
 492.3	24111
 492.9	24163
 493.4	24183
 493.9	24205
 494.5	24218
 495.0	24273
 495.6	24194
 496.1	24205
 496.6	24258
 497.2	24172
 497.7	24141
 498.2	24220
 498.8	24234
 499.3	24153
 499.9	24215
 500.4	24223
 500.9	24213
 501.5	24232
 502.0	24326
 502.6	24337
 503.1	24453
 503.6	24458
 504.2	24452
 504.7	24508
 505.2	24618
 505.8	24649
 506.3	24794
 506.9	24861
 507.4	24897
 507.9	24927
 508.5	25027
 509.0	25135
 509.6	25270
 510.1	25297
 510.6	25391
 511.2	25468
 511.7	25522
 512.2	25633
 512.8	25709
 513.3	25720
 513.9	25745
 514.4	25829
 514.9	25941
 515.5	25853
 516.0	25935
 516.6	25901
 517.1	25946
 517.6	25917
 518.2	25883
 518.7	25799
 519.3	25832
 519.8	25839
 520.3	25803
 520.9	25746
 521.4	25729
 521.9	25752
 522.5	25641
 523.0	25636
 523.6	25655
 524.1	25502
 524.6	25533
 525.2	25557
 525.7	25605
 526.3	25535
 526.8	25649
 527.3	25602
 527.9	25654
 528.4	25667
 528.9	25757
 529.5	25805
 530.0	25829
 530.6	25924
 531.1	25975
 531.6	25946
 532.2	26123
 532.7	26141
 533.3	26245
 533.8	26427
 534.3	26527
 534.9	26591
 535.4	26609
 536.0	26739
 536.5	26838
 537.0	26879
 537.6	26955
 538.1	27066
 538.6	27135
 539.2	27133
 539.7	27195
 540.3	27323
 540.8	27333
 541.3	27322
 541.9	27390
 542.4	27409
 543.0	27485
 543.5	27460
 544.0	27453
 544.6	27491
 545.1	27513
 545.6	27535
 546.2	27517
 546.7	27421
 547.3	27482
 547.8	27457
 548.3	27489
 548.9	27395
 549.4	27391
 550.0	27349
 550.5	27409
 551.0	27437
 551.6	27383
 552.1	27395
 552.6	27399
 553.2	27348
 553.7	27329
 554.3	27367
 554.8	27439
 555.3	27309
 555.9	27385
 556.4	27368
 556.9	27485
 557.5	27530
 558.0	27513
 558.6	27513
 559.1	27595
 559.6	27611
 560.2	27646
 560.7	27673
 561.3	27660
 561.8	27672
 562.3	27821
 562.9	27830
 563.4	27889
 563.9	27899
 564.5	27933
 565.0	27940
 565.6	27981
 566.1	27992
 566.6	28010
 567.2	28011
 567.7	28114
 568.2	28056
 568.8	28060
 569.3	28055
 569.9	28123
 570.4	28107
 570.9	28099
 571.5	28101
 572.0	28111
 572.5	28174
 573.1	28133
 573.6	28217
 574.1	28211
 574.7	28231
 575.2	28229
 575.8	28291
 576.3	28388
 576.8	28385
 577.4	28421
 577.9	28463
 578.4	28470
 579.0	28509
 579.5	28647
 580.1	28605
 580.6	28658
 581.1	28774
 581.7	28831
 582.2	28813
 582.7	28883
 583.3	28946
 583.8	28957
 584.3	28941
 584.9	29026
 585.4	29049
 586.0	29053
 586.5	29113
 587.0	29106
 587.6	29205
 588.1	29178
 588.6	29257
 589.2	29218
 589.7	29250
 590.2	29248
 590.8	29235
 591.3	29257
 591.9	29198
 592.4	29243
 592.9	29167
 593.5	29140
 594.0	29105
 594.5	29109
 595.1	29051
 595.6	28997
 596.1	29026
 596.7	28970
 597.2	28981
 597.7	28895
 598.3	28885
 598.8	28835
 599.3	28809
 599.9	28743
 600.4	28716
 601.0	28710
 601.5	28681
 602.0	28660
 602.6	28606
 603.1	28618
 603.6	28625
 604.2	28715
 604.7	28639
 605.2	28717
 605.8	28639
 606.3	28689
 606.8	28768
 607.4	28779
 607.9	28846
 608.4	28817
 609.0	28882
 609.5	28951
 610.0	28959
 610.6	29083
 611.1	29039
 611.6	29118
 612.2	29153
 612.7	29247
 613.2	29281
 613.8	29263
 614.3	29340
 614.8	29427
 615.4	29428
 615.9	29567
 616.4	29679
 617.0	29680
 617.5	29811
 618.0	29895
 618.6	29908
 619.1	30008
 619.6	30131
 620.2	30221
 620.7	30358
 621.2	30404
 621.8	30492
 622.3	30586
 622.8	30625
 623.4	30702
 623.9	30801
 624.4	30819
 625.0	30842
 625.5	30856
 626.0	30895
 626.6	30951
 627.1	30938
 627.6	30890
 628.2	30857
 628.7	30899
 629.2	30879
 629.8	30879
 630.3	30857
 630.8	30831
 631.4	30772
 631.9	30745
 632.4	30603
 632.9	30571
 633.5	30527
 634.0	30453
 634.5	30463
 635.1	30361
 635.6	30317
 636.1	30245
 636.7	30223
 637.2	30184
 637.7	30047
 638.3	30103
 638.8	30058
 639.3	30046
 639.8	29947
 640.4	29938
 640.9	29935
 641.4	29826
 642.0	29791
 642.5	29786
 643.0	29747
 643.6	29823
 644.1	29772
 644.6	29785
 645.1	29796
 645.7	29802
 646.2	29750
 646.7	29780
 647.3	29811
 647.8	29843
 648.3	29808
 648.9	29868
 649.4	29808
 649.9	29886
 650.4	29921
 651.0	29992
 651.5	30037
 652.0	30104
 652.6	30099
 653.1	30199
 653.6	30149
 654.1	30239
 654.7	30239
 655.2	30358
 655.7	30421
 656.3	30463
 656.8	30449
 657.3	30533
 657.8	30513
 658.4	30553
 658.9	30604
 659.4	30687
 659.9	30715
 660.5	30714
 661.0	30780
 661.5	30835
 662.1	30811
 662.6	30838
 663.1	30815
 663.6	30908
 664.2	30860
 664.7	30845
 665.2	30799
 665.7	30897
 666.3	30865
 666.8	30858
 667.3	30862
 667.8	30827
 668.4	30841
 668.9	30840
 669.4	30800
 669.9	30817
 670.5	30740
 671.0	30747
 671.5	30695
 672.0	30730
 672.6	30709
 673.1	30737
 673.6	30631
 674.1	30651
 674.7	30628
 675.2	30657
 675.7	30521
 676.2	30501
 676.8	30551
 677.3	30546
 677.8	30461
 678.3	30545
 678.9	30473
 679.4	30399
 679.9	30448
 680.4	30427
 681.0	30384
 681.5	30407
 682.0	30347
 682.5	30373
 683.1	30272
 683.6	30297
 684.1	30235
 684.6	30316
 685.1	30265
 685.7	30267
 686.2	30239
 686.7	30204
 687.2	30187
 687.8	30246
 688.3	30191
 688.8	30201
 689.3	30138
 689.8	30175
 690.4	30161
 690.9	30177
 691.4	30205
 691.9	30200
 692.4	30188
 693.0	30251
 693.5	30210
 694.0	30211
 694.5	30200
 695.1	30180
 695.6	30143
 696.1	30215
 696.6	30209
 697.1	30226
 697.7	30251
 698.2	30190
 698.7	30212
 699.2	30174
 699.7	30176
 700.3	30131
 700.8	30113
 701.3	30185
 701.8	30151
 702.3	30091
 702.8	30094
 703.4	30069
 703.9	30043
 704.4	30002
 704.9	29966
 705.4	29949
 706.0	30005
 706.5	29973
 707.0	29874
 707.5	29843
 708.0	29858
 708.5	29786
 709.1	29824
 709.6	29787
 710.1	29715
 710.6	29683
 711.1	29662
 711.7	29659
 712.2	29635
 712.7	29631
 713.2	29590
 713.7	29590
 714.2	29531
 714.8	29610
 715.3	29549
 715.8	29532
 716.3	29538
 716.8	29459
 717.3	29450
 717.8	29541
 718.4	29556
 718.9	29499
 719.4	29583
 719.9	29487
 720.4	29535
 720.9	29559
 721.4	29553
 722.0	29581
 722.5	29576
 723.0	29567
 723.5	29589
 724.0	29561
 724.5	29552
 725.0	29596
 725.6	29541
 726.1	29599
 726.6	29716
 727.1	29659
 727.6	29699
 728.1	29729
 728.6	29677
 729.1	29683
 729.7	29665
 730.2	29690
 730.7	29717
 731.2	29750
 731.7	29743
 732.2	29759
 732.7	29726
 733.2	29770
 733.8	29735
 734.3	29768
 734.8	29759
 735.3	29799
 735.8	29793
 736.3	29787
 736.8	29837
 737.3	29897
 737.8	29855
 738.4	29859
 738.9	29823
 739.4	29918
 739.9	29911
 740.4	29933
 740.9	29903
 741.4	29908
 741.9	29903
 742.4	29915
 742.9	29899
 743.4	29963
 744.0	29871
 744.5	29858
 745.0	29857
 745.5	29915
 746.0	29879
 746.5	29876
 747.0	29807
 747.5	29779
 748.0	29742
 748.5	29751
 749.0	29742
 749.5	29803
 750.0	29633
 750.5	29659
 751.1	29642
 751.6	29625
 752.1	29578
 752.6	29529
 753.1	29546
 753.6	29460
 754.1	29410
 754.6	29421
 755.1	29346
 755.6	29328
 756.1	29221
 756.6	29282
 757.1	29224
 757.6	29178
 758.1	29109
 758.6	29079
 759.1	28982
 759.6	28986
 760.1	28907
 760.7	28828
 761.2	28877
 761.7	28804
 762.2	28756
 762.7	28759
 763.2	28618
 763.7	28661
 764.2	28561
 764.7	28525
 765.2	28513
 765.7	28444
 766.2	28375
 766.7	28372
 767.2	28281
 767.7	28243
 768.2	28194
 768.7	28125
 769.2	28078
 769.7	28089
 770.2	28037
 770.7	28007
 771.2	27954
 771.7	27915
 772.2	27905
 772.7	27921
 773.2	27871
 773.7	27805
 774.2	27740
 774.7	27757
 775.2	27707
 775.7	27682
 776.2	27650
 776.7	27668
 777.2	27578
 777.7	27629
 778.2	27595
 778.7	27623
 779.2	27617
 779.7	27631
 780.2	27469
 780.7	27517
 781.2	27500
 781.7	27552
 782.2	27474
 782.6	27530
 783.1	27514
 783.6	27481
 784.1	27434
 784.6	27415
 785.1	27412
 785.6	27406
 786.1	27415
 786.6	27427
 787.1	27366
 787.6	27351
 788.1	27331
 788.6	27310
 789.1	27281
 789.6	27291
 790.1	27287
 790.6	27274
 791.1	27167
 791.6	27150
 792.0	27137
 792.5	27150
 793.0	27105
 793.5	27083
 794.0	26998
 794.5	27063
 795.0	27000
 795.5	26963
 796.0	26934
 796.5	26860
 797.0	26843
 797.5	26852
 798.0	26680
 798.4	26675
 798.9	26616
 799.4	26594
 799.9	26564
 800.4	26399
 800.9	26455
 801.4	26463
 801.9	26382
 802.4	26267
 802.9	26280
 803.3	26229
 803.8	26157
 804.3	26074
 804.8	26077
 805.3	25996
 805.8	25931
 806.3	25880
 806.8	25825
 807.2	25772
 807.7	25704
 808.2	25677
 808.7	25567
 809.2	25531
 809.7	25427
 810.2	25447
 810.7	25345
 811.1	25313
 811.6	25274
 812.1	25188
 812.6	25115
 813.1	25126
 813.6	25103
 814.1	25057
 814.5	24977
 815.0	24965
 815.5	24880
 816.0	24813
 816.5	24842
 817.0	24759
 817.4	24717
 817.9	24714
 818.4	24611
 818.9	24666
 819.4	24596
 819.9	24548
 820.3	24490
 820.8	24465
 821.3	24448
 821.8	24435
 822.3	24344
 822.7	24303
 823.2	24340
 823.7	24279
 824.2	24260
 824.7	24214
 825.2	24211
 825.6	24170
 826.1	24139
 826.6	24179
 827.1	24135
 827.6	24116
 828.0	24036
 828.5	23997
 829.0	24016
 829.5	23946
 829.9	23935
 830.4	23971
 830.9	23941
 831.4	23948
 831.9	23892
 832.3	23957
 832.8	23875
 833.3	23873
 833.8	23930
 834.2	23911
 834.7	23754
 835.2	23827
 835.7	23815
 836.1	23794
 836.6	23763
 837.1	23759
 837.6	23756
 838.0	23781
 838.5	23788
 839.0	23784
 839.5	23765
 839.9	23673
 840.4	23671
 840.9	23629
 841.4	23650
 841.8	23671
 842.3	23669
 842.8	23673
 843.3	23659
 843.7	23550
 844.2	23522
 844.7	23591
 845.1	23558
 845.6	23471
 846.1	23482
 846.6	23503
 847.0	23399
 847.5	23432
 848.0	23398
 848.4	23419
 848.9	23370
 849.4	23329
 849.8	23332
 850.3	23321
 850.8	23355
 851.3	23297
 851.7	23274
 852.2	23264
 852.7	23241
 853.1	23203
 853.6	23135
 854.1	23153
 854.5	23108
 855.0	23071
 855.5	23049
 855.9	23086
 856.4	23051
 856.9	22957
 857.3	22991
 857.8	22930
 858.3	22937
 858.7	22872
 859.2	22878
 859.7	22874
 860.1	22911
 860.6	22872
 861.1	22790
 861.5	22815
 862.0	22794
 862.4	22754
 862.9	22699
 863.4	22719
 863.8	22704
 864.3	22681
 864.8	22587
 865.2	22613
 865.7	22613
 866.1	22609
 866.6	22519
 867.1	22576
 867.5	22545
 868.0	22505
 868.5	22446
 868.9	22421
 869.4	22507
 869.8	22447
 870.3	22390
 870.8	22443
 871.2	22380
 871.7	22351
 872.1	22285
 872.6	22315
 873.0	22270
 873.5	22332
 874.0	22308
 874.4	22202
 874.9	22253
 875.3	22247
 875.8	22224
 876.2	22136
 876.7	22104
 877.2	21870
 877.6	21435
 878.1	20788
