#xlabel Wavelength (nm)
#ylabel Spectrometer Array Counts
#title Exposure time is 10000 ms
## lambda	counts
 349.8	17402
 350.3	17647
 350.8	17886
 351.3	18071
 351.9	18177
 352.4	18291
 352.9	18373
 353.4	18349
 354.0	18363
 354.5	18407
 355.0	18421
 355.5	18438
 356.0	18401
 356.6	18369
 357.1	18419
 357.6	18395
 358.1	18419
 358.7	18357
 359.2	18369
 359.7	18390
 360.2	18427
 360.8	18390
 361.3	18489
 361.8	18433
 362.3	18465
 362.9	18422
 363.4	18498
 363.9	18500
 364.4	18526
 364.9	18439
 365.5	18517
 366.0	18500
 366.5	18457
 367.0	18503
 367.6	18530
 368.1	18538
 368.6	18475
 369.1	18537
 369.7	18585
 370.2	18511
 370.7	18515
 371.2	18565
 371.8	18625
 372.3	18547
 372.8	18629
 373.3	18643
 373.9	18593
 374.4	18613
 374.9	18667
 375.5	18562
 376.0	18697
 376.5	18665
 377.0	18690
 377.6	18644
 378.1	18729
 378.6	18673
 379.1	18678
 379.7	18665
 380.2	18749
 380.7	18758
 381.2	18721
 381.8	18716
 382.3	18763
 382.8	18747
 383.4	18803
 383.9	18756
 384.4	18912
 384.9	18829
 385.5	18848
 386.0	18854
 386.5	18932
 387.1	18869
 387.6	18898
 388.1	18905
 388.6	18934
 389.2	18924
 389.7	18953
 390.2	18939
 390.8	19039
 391.3	19018
 391.8	19028
 392.3	19031
 392.9	19036
 393.4	19046
 393.9	19120
 394.5	19132
 395.0	19099
 395.5	19127
 396.0	19138
 396.6	19118
 397.1	19219
 397.6	19226
 398.2	19227
 398.7	19244
 399.2	19337
 399.8	19219
 400.3	19292
 400.8	19341
 401.3	19321
 401.9	19345
 402.4	19366
 402.9	19370
 403.5	19407
 404.0	19405
 404.5	19365
 405.1	19387
 405.6	19501
 406.1	19479
 406.7	19502
 407.2	19525
 407.7	19622
 408.2	19625
 408.8	19639
 409.3	19684
 409.8	19747
 410.4	19717
 410.9	19736
 411.4	19703
 412.0	19775
 412.5	19839
 413.0	19801
 413.6	19855
 414.1	19826
 414.6	19863
 415.2	19925
 415.7	19875
 416.2	19935
 416.8	19929
 417.3	19930
 417.8	19963
 418.4	20066
 418.9	20011
 419.4	20159
 420.0	20056
 420.5	20134
 421.0	20084
 421.5	20183
 422.1	20171
 422.6	20230
 423.1	20268
 423.7	20249
 424.2	20241
 424.7	20286
 425.3	20273
 425.8	20303
 426.3	20303
 426.9	20368
 427.4	20325
 427.9	20447
 428.5	20401
 429.0	20452
 429.6	20424
 430.1	20526
 430.6	20546
 431.2	20518
 431.7	20639
 432.2	20632
 432.8	20631
 433.3	20771
 433.8	20798
 434.4	20795
 434.9	20835
 435.4	20915
 436.0	20922
 436.5	20927
 437.0	21023
 437.6	21015
 438.1	21082
 438.6	21097
 439.2	21138
 439.7	21137
 440.2	21092
 440.8	21121
 441.3	21131
 441.8	21138
 442.4	21110
 442.9	21134
 443.5	21175
 444.0	21174
 444.5	21209
 445.1	21127
 445.6	21169
 446.1	21210
 446.7	21246
 447.2	21279
 447.7	21289
 448.3	21383
 448.8	21371
 449.3	21441
 449.9	21428
 450.4	21559
 450.9	21637
 451.5	21679
 452.0	21684
 452.6	21745
 453.1	21848
 453.6	21890
 454.2	21827
 454.7	21937
 455.2	21988
 455.8	22061
 456.3	22035
 456.8	22179
 457.4	22133
 457.9	22156
 458.5	22215
 459.0	22189
 459.5	22235
 460.1	22199
 460.6	22247
 461.1	22234
 461.7	22291
 462.2	22243
 462.7	22285
 463.3	22219
 463.8	22291
 464.4	22366
 464.9	22321
 465.4	22395
 466.0	22321
 466.5	22407
 467.0	22362
 467.6	22451
 468.1	22558
 468.7	22519
 469.2	22483
 469.7	22599
 470.3	22609
 470.8	22677
 471.3	22681
 471.9	22682
 472.4	22763
 473.0	22829
 473.5	22878
 474.0	22900
 474.6	22935
 475.1	22962
 475.6	23060
 476.2	23091
 476.7	23086
 477.3	23169
 477.8	23132
 478.3	23087
 478.9	23305
 479.4	23224
 479.9	23259
 480.5	23271
 481.0	23326
 481.6	23372
 482.1	23469
 482.6	23479
 483.2	23519
 483.7	23655
 484.2	23627
 484.8	23506
 485.3	23625
 485.9	23726
 486.4	23715
 486.9	23764
 487.5	23747
 488.0	23789
 488.6	23865
 489.1	23907
 489.6	23973
 490.2	23989
 490.7	23971
 491.2	23953
 491.8	24025
 492.3	23985
 492.9	24049
 493.4	24066
 493.9	24088
 494.5	24087
 495.0	24149
 495.6	24075
 496.1	24079
 496.6	24137
 497.2	24046
 497.7	24019
 498.2	24099
 498.8	24113
 499.3	24042
 499.9	24097
 500.4	24104
 500.9	24098
 501.5	24116
 502.0	24209
 502.6	24215
 503.1	24329
 503.6	24332
 504.2	24336
 504.7	24379
 505.2	24488
 505.8	24526
 506.3	24662
 506.9	24730
 507.4	24767
 507.9	24801
 508.5	24900
 509.0	25005
 509.6	25143
 510.1	25165
 510.6	25259
 511.2	25330
 511.7	25385
 512.2	25494
 512.8	25567
 513.3	25580
 513.9	25604
 514.4	25687
 514.9	25794
 515.5	25711
 516.0	25792
 516.6	25759
 517.1	25805
 517.6	25775
 518.2	25745
 518.7	25660
 519.3	25699
 519.8	25700
 520.3	25669
 520.9	25604
 521.4	25593
 521.9	25617
 522.5	25511
 523.0	25503
 523.6	25517
 524.1	25369
 524.6	25410
 525.2	25425
 525.7	25473
 526.3	25420
 526.8	25513
 527.3	25483
 527.9	25526
 528.4	25539
 528.9	25624
 529.5	25667
 530.0	25702
 530.6	25799
 531.1	25844
 531.6	25813
 532.2	25983
 532.7	26013
 533.3	26111
 533.8	26283
 534.3	26385
 534.9	26445
 535.4	26469
 536.0	26600
 536.5	26695
 537.0	26726
 537.6	26807
 538.1	26916
 538.6	26989
 539.2	26984
 539.7	27046
 540.3	27180
 540.8	27185
 541.3	27172
 541.9	27239
 542.4	27258
 543.0	27340
 543.5	27313
 544.0	27302
 544.6	27337
 545.1	27359
 545.6	27377
 546.2	27370
 546.7	27270
 547.3	27332
 547.8	27305
 548.3	27336
 548.9	27245
 549.4	27235
 550.0	27205
 550.5	27258
 551.0	27292
 551.6	27236
 552.1	27247
 552.6	27247
 553.2	27201
 553.7	27182
 554.3	27226
 554.8	27294
 555.3	27162
 555.9	27236
 556.4	27227
 556.9	27338
 557.5	27375
 558.0	27361
 558.6	27362
 559.1	27443
 559.6	27454
 560.2	27493
 560.7	27525
 561.3	27517
 561.8	27523
 562.3	27665
 562.9	27677
 563.4	27739
 563.9	27743
 564.5	27785
 565.0	27783
 565.6	27825
 566.1	27845
 566.6	27855
 567.2	27856
 567.7	27959
 568.2	27905
 568.8	27910
 569.3	27901
 569.9	27973
 570.4	27960
 570.9	27949
 571.5	27957
 572.0	27957
 572.5	28024
 573.1	27988
 573.6	28068
 574.1	28064
 574.7	28086
 575.2	28079
 575.8	28145
 576.3	28247
 576.8	28231
 577.4	28269
 577.9	28315
 578.4	28315
 579.0	28353
 579.5	28491
 580.1	28445
 580.6	28502
 581.1	28614
 581.7	28669
 582.2	28656
 582.7	28717
 583.3	28793
 583.8	28801
 584.3	28783
 584.9	28863
 585.4	28887
 586.0	28895
 586.5	28957
 587.0	28951
 587.6	29047
 588.1	29013
 588.6	29097
 589.2	29058
 589.7	29089
 590.2	29085
 590.8	29070
 591.3	29099
 591.9	29033
 592.4	29075
 592.9	29006
 593.5	28982
 594.0	28951
 594.5	28948
 595.1	28895
 595.6	28839
 596.1	28870
 596.7	28808
 597.2	28820
 597.7	28740
 598.3	28726
 598.8	28684
 599.3	28656
 599.9	28585
 600.4	28565
 601.0	28555
 601.5	28530
 602.0	28509
 602.6	28458
 603.1	28474
 603.6	28479
 604.2	28568
 604.7	28490
 605.2	28570
 605.8	28493
 606.3	28538
 606.8	28623
 607.4	28630
 607.9	28691
 608.4	28667
 609.0	28737
 609.5	28795
 610.0	28809
 610.6	28929
 611.1	28881
 611.6	28967
 612.2	29000
 612.7	29090
 613.2	29126
 613.8	29109
 614.3	29190
 614.8	29269
 615.4	29275
 615.9	29413
 616.4	29525
 617.0	29529
 617.5	29652
 618.0	29737
 618.6	29749
 619.1	29855
 619.6	29978
 620.2	30062
 620.7	30195
 621.2	30233
 621.8	30329
 622.3	30421
 622.8	30451
 623.4	30528
 623.9	30632
 624.4	30648
 625.0	30680
 625.5	30692
 626.0	30722
 626.6	30784
 627.1	30767
 627.6	30722
 628.2	30691
 628.7	30729
 629.2	30708
 629.8	30713
 630.3	30691
 630.8	30659
 631.4	30601
 631.9	30581
 632.4	30438
 632.9	30412
 633.5	30371
 634.0	30288
 634.5	30299
 635.1	30201
 635.6	30152
 636.1	30085
 636.7	30070
 637.2	30027
 637.7	29887
 638.3	29950
 638.8	29894
 639.3	29883
 639.8	29787
 640.4	29781
 640.9	29778
 641.4	29680
 642.0	29641
 642.5	29629
 643.0	29595
 643.6	29678
 644.1	29620
 644.6	29635
 645.1	29646
 645.7	29645
 646.2	29605
 646.7	29629
 647.3	29656
 647.8	29683
 648.3	29661
 648.9	29718
 649.4	29654
 649.9	29739
 650.4	29772
 651.0	29843
 651.5	29879
 652.0	29955
 652.6	29939
 653.1	30045
 653.6	29995
 654.1	30083
 654.7	30084
 655.2	30199
 655.7	30263
 656.3	30309
 656.8	30294
 657.3	30381
 657.8	30364
 658.4	30404
 658.9	30442
 659.4	30532
 659.9	30555
 660.5	30549
 661.0	30615
 661.5	30668
 662.1	30654
 662.6	30678
 663.1	30659
 663.6	30749
 664.2	30702
 664.7	30688
 665.2	30631
 665.7	30736
 666.3	30701
 666.8	30701
 667.3	30700
 667.8	30663
 668.4	30681
 668.9	30677
 669.4	30646
 669.9	30655
 670.5	30587
 671.0	30590
 671.5	30544
 672.0	30575
 672.6	30556
 673.1	30578
 673.6	30478
 674.1	30493
 674.7	30472
 675.2	30501
 675.7	30369
 676.2	30348
 676.8	30399
 677.3	30394
 677.8	30310
 678.3	30395
 678.9	30317
 679.4	30245
 679.9	30295
 680.4	30274
 681.0	30230
 681.5	30249
 682.0	30198
 682.5	30221
 683.1	30123
 683.6	30142
 684.1	30087
 684.6	30171
 685.1	30107
 685.7	30127
 686.2	30094
 686.7	30055
 687.2	30041
 687.8	30097
 688.3	30039
 688.8	30057
 689.3	29998
 689.8	30025
 690.4	30011
 690.9	30027
 691.4	30047
 691.9	30053
 692.4	30037
 693.0	30099
 693.5	30066
 694.0	30059
 694.5	30055
 695.1	30035
 695.6	30002
 696.1	30071
 696.6	30055
 697.1	30077
 697.7	30106
 698.2	30035
 698.7	30065
 699.2	30026
 699.7	30031
 700.3	29986
 700.8	29965
 701.3	30041
 701.8	29999
 702.3	29941
 702.8	29942
 703.4	29923
 703.9	29893
 704.4	29855
 704.9	29813
 705.4	29810
 706.0	29863
 706.5	29829
 707.0	29737
 707.5	29699
 708.0	29716
 708.5	29642
 709.1	29688
 709.6	29635
 710.1	29577
 710.6	29538
 711.1	29515
 711.7	29518
 712.2	29495
 712.7	29494
 713.2	29447
 713.7	29442
 714.2	29393
 714.8	29463
 715.3	29409
 715.8	29396
 716.3	29397
 716.8	29325
 717.3	29311
 717.8	29405
 718.4	29413
 718.9	29355
 719.4	29441
 719.9	29347
 720.4	29397
 720.9	29415
 721.4	29415
 722.0	29443
 722.5	29435
 723.0	29431
 723.5	29449
 724.0	29425
 724.5	29409
 725.0	29457
 725.6	29401
 726.1	29457
 726.6	29571
 727.1	29510
 727.6	29551
 728.1	29579
 728.6	29539
 729.1	29545
 729.7	29527
 730.2	29555
 730.7	29579
 731.2	29613
 731.7	29599
 732.2	29619
 732.7	29592
 733.2	29627
 733.8	29601
 734.3	29631
 734.8	29616
 735.3	29651
 735.8	29659
 736.3	29649
 736.8	29701
 737.3	29758
 737.8	29716
 738.4	29725
 738.9	29678
 739.4	29778
 739.9	29759
 740.4	29790
 740.9	29762
 741.4	29773
 741.9	29759
 742.4	29781
 742.9	29758
 743.4	29825
 744.0	29730
 744.5	29716
 745.0	29720
 745.5	29771
 746.0	29741
 746.5	29746
 747.0	29671
 747.5	29638
 748.0	29608
 748.5	29618
 749.0	29605
 749.5	29667
 750.0	29499
 750.5	29522
 751.1	29505
 751.6	29487
 752.1	29446
 752.6	29395
 753.1	29413
 753.6	29329
 754.1	29279
 754.6	29285
 755.1	29220
 755.6	29198
 756.1	29087
 756.6	29151
 757.1	29093
 757.6	29051
 758.1	28978
 758.6	28951
 759.1	28854
 759.6	28858
 760.1	28780
 760.7	28703
 761.2	28750
 761.7	28673
 762.2	28631
 762.7	28637
 763.2	28492
 763.7	28535
 764.2	28431
 764.7	28398
 765.2	28386
 765.7	28320
 766.2	28249
 766.7	28251
 767.2	28161
 767.7	28127
 768.2	28073
 768.7	28008
 769.2	27960
 769.7	27974
 770.2	27917
 770.7	27891
 771.2	27835
 771.7	27793
 772.2	27781
 772.7	27799
 773.2	27750
 773.7	27688
 774.2	27620
 774.7	27643
 775.2	27597
 775.7	27565
 776.2	27541
 776.7	27555
 777.2	27465
 777.7	27515
 778.2	27480
 778.7	27511
 779.2	27496
 779.7	27510
 780.2	27349
 780.7	27403
 781.2	27388
 781.7	27432
 782.2	27352
 782.6	27415
 783.1	27405
 783.6	27364
 784.1	27313
 784.6	27301
 785.1	27302
 785.6	27295
 786.1	27304
 786.6	27314
 787.1	27247
 787.6	27235
 788.1	27219
 788.6	27193
 789.1	27167
 789.6	27178
 790.1	27183
 790.6	27165
 791.1	27057
 791.6	27037
 792.0	27027
 792.5	27039
 793.0	26994
 793.5	26975
 794.0	26895
 794.5	26948
 795.0	26889
 795.5	26850
 796.0	26823
 796.5	26747
 797.0	26735
 797.5	26743
 798.0	26571
 798.4	26567
 798.9	26515
 799.4	26489
 799.9	26455
 800.4	26295
 800.9	26354
 801.4	26350
 801.9	26276
 802.4	26161
 802.9	26177
 803.3	26127
 803.8	26051
 804.3	25971
 804.8	25973
 805.3	25891
 805.8	25822
 806.3	25776
 806.8	25725
 807.2	25670
 807.7	25604
 808.2	25580
 808.7	25465
 809.2	25437
 809.7	25327
 810.2	25357
 810.7	25249
 811.1	25218
 811.6	25182
 812.1	25097
 812.6	25021
 813.1	25031
 813.6	25008
 814.1	24959
 814.5	24885
 815.0	24873
 815.5	24791
 816.0	24723
 816.5	24747
 817.0	24661
 817.4	24624
 817.9	24627
 818.4	24522
 818.9	24572
 819.4	24511
 819.9	24458
 820.3	24403
 820.8	24373
 821.3	24359
 821.8	24350
 822.3	24262
 822.7	24216
 823.2	24259
 823.7	24193
 824.2	24175
 824.7	24127
 825.2	24123
 825.6	24076
 826.1	24052
 826.6	24081
 827.1	24044
 827.6	24025
 828.0	23948
 828.5	23910
 829.0	23927
 829.5	23861
 829.9	23848
 830.4	23882
 830.9	23852
 831.4	23865
 831.9	23805
 832.3	23866
 832.8	23793
 833.3	23783
 833.8	23850
 834.2	23827
 834.7	23667
 835.2	23743
 835.7	23732
 836.1	23716
 836.6	23683
 837.1	23679
 837.6	23673
 838.0	23691
 838.5	23706
 839.0	23695
 839.5	23677
 839.9	23591
 840.4	23587
 840.9	23549
 841.4	23569
 841.8	23587
 842.3	23585
 842.8	23590
 843.3	23578
 843.7	23468
 844.2	23443
 844.7	23514
 845.1	23479
 845.6	23391
 846.1	23401
 846.6	23418
 847.0	23317
 847.5	23352
 848.0	23315
 848.4	23337
 848.9	23287
 849.4	23253
 849.8	23255
 850.3	23239
 850.8	23270
 851.3	23213
 851.7	23194
 852.2	23181
 852.7	23162
 853.1	23124
 853.6	23059
 854.1	23081
 854.5	23021
 855.0	22995
 855.5	22968
 855.9	23009
 856.4	22979
 856.9	22879
 857.3	22911
 857.8	22855
 858.3	22863
 858.7	22794
 859.2	22799
 859.7	22794
 860.1	22835
 860.6	22790
 861.1	22716
 861.5	22738
 862.0	22717
 862.4	22677
 862.9	22623
 863.4	22644
 863.8	22627
 864.3	22611
 864.8	22513
 865.2	22544
 865.7	22540
 866.1	22539
 866.6	22443
 867.1	22504
 867.5	22473
 868.0	22437
 868.5	22373
 868.9	22353
 869.4	22437
 869.8	22379
 870.3	22331
 870.8	22381
 871.2	22330
 871.7	22307
 872.1	22247
 872.6	22283
 873.0	22240
 873.5	22303
 874.0	22275
 874.4	22145
 874.9	22159
 875.3	22089
 875.8	21967
 876.2	21749
 876.7	21577
 877.2	21228
 877.6	20797
 878.1	20364
