#xlabel Wavelength (nm)
#ylabel Spectrometer Array Counts
#title Exposure time is 11000 ms
## lambda	counts
 349.8	18503
 350.3	18760
 350.8	19003
 351.3	19203
 351.9	19321
 352.4	19458
 352.9	19544
 353.4	19527
 354.0	19537
 354.5	19597
 355.0	19607
 355.5	19628
 356.0	19583
 356.6	19546
 357.1	19602
 357.6	19571
 358.1	19593
 358.7	19529
 359.2	19538
 359.7	19558
 360.2	19591
 360.8	19551
 361.3	19647
 361.8	19585
 362.3	19612
 362.9	19565
 363.4	19639
 363.9	19633
 364.4	19662
 364.9	19561
 365.5	19636
 366.0	19619
 366.5	19567
 367.0	19615
 367.6	19636
 368.1	19633
 368.6	19557
 369.1	19618
 369.7	19663
 370.2	19574
 370.7	19578
 371.2	19615
 371.8	19673
 372.3	19579
 372.8	19657
 373.3	19669
 373.9	19603
 374.4	19618
 374.9	19665
 375.5	19542
 376.0	19670
 376.5	19626
 377.0	19651
 377.6	19592
 378.1	19663
 378.6	19587
 379.1	19584
 379.7	19559
 380.2	19634
 380.7	19628
 381.2	19579
 381.8	19566
 382.3	19605
 382.8	19577
 383.4	19621
 383.9	19559
 384.4	19718
 384.9	19619
 385.5	19633
 386.0	19634
 386.5	19700
 387.1	19623
 387.6	19641
 388.1	19640
 388.6	19651
 389.2	19633
 389.7	19647
 390.2	19621
 390.8	19702
 391.3	19661
 391.8	19651
 392.3	19626
 392.9	19611
 393.4	19593
 393.9	19654
 394.5	19649
 395.0	19591
 395.5	19602
 396.0	19599
 396.6	19557
 397.1	19647
 397.6	19639
 398.2	19634
 398.7	19631
 399.2	19725
 399.8	19586
 400.3	19649
 400.8	19693
 401.3	19659
 401.9	19666
 402.4	19683
 402.9	19664
 403.5	19688
 404.0	19669
 404.5	19605
 405.1	19609
 405.6	19691
 406.1	19658
 406.7	19649
 407.2	19650
 407.7	19720
 408.2	19705
 408.8	19695
 409.3	19721
 409.8	19759
 410.4	19707
 410.9	19699
 411.4	19638
 412.0	19694
 412.5	19734
 413.0	19675
 413.6	19710
 414.1	19660
 414.6	19691
 415.2	19730
 415.7	19658
 416.2	19700
 416.8	19675
 417.3	19655
 417.8	19664
 418.4	19747
 418.9	19667
 419.4	19803
 420.0	19674
 420.5	19729
 421.0	19664
 421.5	19754
 422.1	19715
 422.6	19767
 423.1	19788
 423.7	19746
 424.2	19724
 424.7	19755
 425.3	19727
 425.8	19739
 426.3	19717
 426.9	19771
 427.4	19702
 427.9	19817
 428.5	19743
 429.0	19774
 429.6	19712
 430.1	19789
 430.6	19773
 431.2	19694
 431.7	19783
 432.2	19736
 432.8	19694
 433.3	19790
 433.8	19777
 434.4	19730
 434.9	19733
 435.4	19773
 436.0	19741
 436.5	19724
 437.0	19794
 437.6	19753
 438.1	19801
 438.6	19796
 439.2	19826
 439.7	19801
 440.2	19742
 440.8	19777
 441.3	19771
 441.8	19775
 442.4	19737
 442.9	19765
 443.5	19801
 444.0	19791
 444.5	19819
 445.1	19722
 445.6	19749
 446.1	19769
 446.7	19777
 447.2	19787
 447.7	19761
 448.3	19818
 448.8	19770
 449.3	19796
 449.9	19719
 450.4	19804
 450.9	19825
 451.5	19814
 452.0	19762
 452.6	19764
 453.1	19806
 453.6	19801
 454.2	19671
 454.7	19733
 455.2	19735
 455.8	19773
 456.3	19697
 456.8	19829
 457.4	19734
 457.9	19739
 458.5	19782
 459.0	19737
 459.5	19774
 460.1	19722
 460.6	19771
 461.1	19749
 461.7	19799
 462.2	19743
 462.7	19787
 463.3	19703
 463.8	19783
 464.4	19847
 464.9	19783
 465.4	19841
 466.0	19731
 466.5	19796
 467.0	19720
 467.6	19783
 468.1	19863
 468.7	19788
 469.2	19701
 469.7	19787
 470.3	19751
 470.8	19785
 471.3	19750
 471.9	19692
 472.4	19737
 473.0	19775
 473.5	19779
 474.0	19756
 474.6	19753
 475.1	19735
 475.6	19800
 476.2	19797
 476.7	19767
 477.3	19820
 477.8	19750
 478.3	19666
 478.9	19871
 479.4	19738
 479.9	19743
 480.5	19722
 481.0	19737
 481.6	19750
 482.1	19796
 482.6	19771
 483.2	19766
 483.7	19878
 484.2	19795
 484.8	19617
 485.3	19708
 485.9	19780
 486.4	19735
 486.9	19741
 487.5	19689
 488.0	19689
 488.6	19741
 489.1	19735
 489.6	19788
 490.2	19781
 490.7	19730
 491.2	19694
 491.8	19748
 492.3	19691
 492.9	19741
 493.4	19750
 493.9	19760
 494.5	19763
 495.0	19839
 495.6	19749
 496.1	19763
 496.6	19828
 497.2	19738
 497.7	19703
 498.2	19795
 498.8	19821
 499.3	19730
 499.9	19785
 500.4	19774
 500.9	19752
 501.5	19735
 502.0	19797
 502.6	19768
 503.1	19847
 503.6	19797
 504.2	19737
 504.7	19727
 505.2	19781
 505.8	19754
 506.3	19820
 506.9	19808
 507.4	19754
 507.9	19712
 508.5	19720
 509.0	19747
 509.6	19798
 510.1	19746
 510.6	19772
 511.2	19776
 511.7	19743
 512.2	19799
 512.8	19809
 513.3	19756
 513.9	19734
 514.4	19787
 514.9	19857
 515.5	19745
 516.0	19823
 516.6	19788
 517.1	19843
 517.6	19826
 518.2	19804
 518.7	19739
 519.3	19805
 519.8	19861
 520.3	19863
 520.9	19815
 521.4	19829
 521.9	19895
 522.5	19815
 523.0	19852
 523.6	19893
 524.1	19738
 524.6	19799
 525.2	19821
 525.7	19851
 526.3	19767
 526.8	19859
 527.3	19799
 527.9	19817
 528.4	19790
 528.9	19839
 529.5	19845
 530.0	19819
 530.6	19858
 531.1	19849
 531.6	19743
 532.2	19855
 532.7	19795
 533.3	19815
 533.8	19926
 534.3	19935
 534.9	19920
 535.4	19845
 536.0	19904
 536.5	19935
 537.0	19877
 537.6	19889
 538.1	19924
 538.6	19929
 539.2	19855
 539.7	19855
 540.3	19955
 540.8	19903
 541.3	19855
 541.9	19881
 542.4	19875
 543.0	19937
 543.5	19891
 544.0	19869
 544.6	19919
 545.1	19925
 545.6	19971
 546.2	19951
 546.7	19851
 547.3	19919
 547.8	19897
 548.3	19950
 548.9	19863
 549.4	19868
 550.0	19836
 550.5	19905
 551.0	19959
 551.6	19896
 552.1	19921
 552.6	19921
 553.2	19894
 553.7	19871
 554.3	19911
 554.8	19983
 555.3	19830
 555.9	19902
 556.4	19851
 556.9	19941
 557.5	19969
 558.0	19909
 558.6	19876
 559.1	19956
 559.6	19931
 560.2	19922
 560.7	19912
 561.3	19875
 561.8	19843
 562.3	19959
 562.9	19935
 563.4	19959
 563.9	19941
 564.5	19941
 565.0	19927
 565.6	19941
 566.1	19931
 566.6	19941
 567.2	19921
 567.7	20030
 568.2	19920
 568.8	19935
 569.3	19905
 569.9	19974
 570.4	19960
 570.9	19929
 571.5	19918
 572.0	19908
 572.5	19959
 573.1	19901
 573.6	19949
 574.1	19940
 574.7	19927
 575.2	19891
 575.8	19926
 576.3	19990
 576.8	19946
 577.4	19950
 577.9	19959
 578.4	19907
 579.0	19901
 579.5	20001
 580.1	19914
 580.6	19907
 581.1	19979
 581.7	19988
 582.2	19912
 582.7	19951
 583.3	19993
 583.8	19950
 584.3	19883
 584.9	19943
 585.4	19932
 586.0	19899
 586.5	19933
 587.0	19877
 587.6	19951
 588.1	19895
 588.6	19970
 589.2	19905
 589.7	19922
 590.2	19908
 590.8	19903
 591.3	19935
 591.9	19873
 592.4	19939
 592.9	19881
 593.5	19875
 594.0	19873
 594.5	19895
 595.1	19882
 595.6	19872
 596.1	19934
 596.7	19906
 597.2	19958
 597.7	19894
 598.3	19908
 598.8	19883
 599.3	19909
 599.9	19886
 600.4	19892
 601.0	19898
 601.5	19891
 602.0	19886
 602.6	19838
 603.1	19853
 603.6	19849
 604.2	19959
 604.7	19852
 605.2	19925
 605.8	19827
 606.3	19851
 606.8	19917
 607.4	19884
 607.9	19914
 608.4	19848
 609.0	19874
 609.5	19918
 610.0	19883
 610.6	19975
 611.1	19875
 611.6	19889
 612.2	19876
 612.7	19934
 613.2	19909
 613.8	19821
 614.3	19845
 614.8	19889
 615.4	19794
 615.9	19870
 616.4	19917
 617.0	19848
 617.5	19937
 618.0	19927
 618.6	19825
 619.1	19845
 619.6	19911
 620.2	19880
 620.7	19926
 621.2	19862
 621.8	19886
 622.3	19896
 622.8	19838
 623.4	19861
 623.9	19909
 624.4	19869
 625.0	19860
 625.5	19866
 626.0	19870
 626.6	19917
 627.1	19912
 627.6	19857
 628.2	19821
 628.7	19860
 629.2	19839
 629.8	19873
 630.3	19902
 630.8	19883
 631.4	19881
 631.9	19911
 632.4	19817
 632.9	19851
 633.5	19858
 634.0	19823
 634.5	19929
 635.1	19867
 635.6	19851
 636.1	19845
 636.7	19918
 637.2	19921
 637.7	19829
 638.3	19947
 638.8	19949
 639.3	19966
 639.8	19929
 640.4	19951
 640.9	19981
 641.4	19889
 642.0	19893
 642.5	19913
 643.0	19884
 643.6	19975
 644.1	19933
 644.6	19946
 645.1	19990
 645.7	19963
 646.2	19925
 646.7	19939
 647.3	19970
 647.8	19967
 648.3	19944
 648.9	19975
 649.4	19882
 649.9	19945
 650.4	19946
 651.0	19980
 651.5	19990
 652.0	20031
 652.6	19966
 653.1	20037
 653.6	19932
 654.1	20012
 654.7	19946
 655.2	20023
 655.7	20047
 656.3	20062
 656.8	19991
 657.3	20033
 657.8	19974
 658.4	19953
 658.9	19950
 659.4	20037
 659.9	20020
 660.5	19993
 661.0	20036
 661.5	20074
 662.1	20019
 662.6	20031
 663.1	19991
 663.6	20070
 664.2	20027
 664.7	19991
 665.2	19913
 665.7	20040
 666.3	20006
 666.8	20018
 667.3	20023
 667.8	19985
 668.4	20017
 668.9	20023
 669.4	20015
 669.9	20050
 670.5	19989
 671.0	20007
 671.5	19965
 672.0	20038
 672.6	20046
 673.1	20072
 673.6	19989
 674.1	20033
 674.7	20021
 675.2	20081
 675.7	19942
 676.2	19963
 676.8	20014
 677.3	20048
 677.8	19965
 678.3	20093
 678.9	20026
 679.4	19979
 679.9	20048
 680.4	20056
 681.0	20020
 681.5	20074
 682.0	20047
 682.5	20070
 683.1	19984
 683.6	20051
 684.1	19987
 684.6	20102
 685.1	20034
 685.7	20064
 686.2	20032
 686.7	19996
 687.2	19991
 687.8	20063
 688.3	20005
 688.8	20037
 689.3	19977
 689.8	20004
 690.4	20009
 690.9	20011
 691.4	20009
 691.9	20049
 692.4	19996
 693.0	20067
 693.5	20038
 694.0	20017
 694.5	20013
 695.1	19993
 695.6	19951
 696.1	20034
 696.6	20011
 697.1	20026
 697.7	20058
 698.2	19992
 698.7	20016
 699.2	19977
 699.7	19982
 700.3	19965
 700.8	19945
 701.3	20065
 701.8	20025
 702.3	19974
 702.8	19988
 703.4	19953
 703.9	19974
 704.4	19982
 704.9	19943
 705.4	19961
 706.0	20070
 706.5	20061
 707.0	19974
 707.5	19973
 708.0	20014
 708.5	19965
 709.1	20045
 709.6	20015
 710.1	19987
 710.6	19968
 711.1	19979
 711.7	20012
 712.2	20024
 712.7	20030
 713.2	20017
 713.7	20023
 714.2	19989
 714.8	20075
 715.3	20026
 715.8	20027
 716.3	20051
 716.8	19951
 717.3	19943
 717.8	20058
 718.4	20068
 718.9	20001
 719.4	20085
 719.9	19991
 720.4	20042
 720.9	20047
 721.4	20043
 722.0	20065
 722.5	20046
 723.0	20029
 723.5	20039
 724.0	19997
 724.5	19995
 725.0	20008
 725.6	19934
 726.1	19982
 726.6	20105
 727.1	20042
 727.6	20077
 728.1	20096
 728.6	20049
 729.1	20035
 729.7	20021
 730.2	20050
 730.7	20083
 731.2	20111
 731.7	20103
 732.2	20104
 732.7	20085
 733.2	20132
 733.8	20109
 734.3	20125
 734.8	20084
 735.3	20105
 735.8	20084
 736.3	20052
 736.8	20087
 737.3	20119
 737.8	20059
 738.4	20053
 738.9	19999
 739.4	20091
 739.9	20075
 740.4	20075
 740.9	20066
 741.4	20065
 741.9	20052
 742.4	20074
 742.9	20052
 743.4	20150
 744.0	20069
 744.5	20069
 745.0	20089
 745.5	20177
 746.0	20153
 746.5	20154
 747.0	20105
 747.5	20095
 748.0	20068
 748.5	20091
 749.0	20111
 749.5	20208
 750.0	20043
 750.5	20122
 751.1	20133
 751.6	20139
 752.1	20140
 752.6	20111
 753.1	20145
 753.6	20088
 754.1	20060
 754.6	20121
 755.1	20086
 755.6	20105
 756.1	20025
 756.6	20143
 757.1	20109
 757.6	20108
 758.1	20083
 758.6	20117
 759.1	20052
 759.6	20097
 760.1	20054
 760.7	20029
 761.2	20117
 761.7	20061
 762.2	20058
 762.7	20129
 763.2	19982
 763.7	20089
 764.2	20033
 764.7	20039
 765.2	20092
 765.7	20073
 766.2	20040
 766.7	20106
 767.2	20068
 767.7	20088
 768.2	20076
 768.7	20051
 769.2	20051
 769.7	20115
 770.2	20085
 770.7	20097
 771.2	20084
 771.7	20063
 772.2	20086
 772.7	20138
 773.2	20130
 773.7	20085
 774.2	20042
 774.7	20094
 775.2	20093
 775.7	20074
 776.2	20081
 776.7	20109
 777.2	20032
 777.7	20122
 778.2	20112
 778.7	20155
 779.2	20163
 779.7	20204
 780.2	20039
 780.7	20116
 781.2	20127
 781.7	20207
 782.2	20127
 782.6	20210
 783.1	20221
 783.6	20180
 784.1	20152
 784.6	20141
 785.1	20157
 785.6	20150
 786.1	20190
 786.6	20212
 787.1	20153
 787.6	20161
 788.1	20159
 788.6	20149
 789.1	20150
 789.6	20197
 790.1	20218
 790.6	20222
 791.1	20127
 791.6	20141
 792.0	20174
 792.5	20215
 793.0	20207
 793.5	20207
 794.0	20153
 794.5	20254
 795.0	20245
 795.5	20216
 796.0	20243
 796.5	20195
 797.0	20227
 797.5	20285
 798.0	20143
 798.4	20202
 798.9	20194
 799.4	20231
 799.9	20245
 800.4	20111
 800.9	20225
 801.4	20311
 801.9	20284
 802.4	20222
 802.9	20304
 803.3	20311
 803.8	20289
 804.3	20239
 804.8	20323
 805.3	20279
 805.8	20284
 806.3	20297
 806.8	20289
 807.2	20304
 807.7	20271
 808.2	20318
 808.7	20244
 809.2	20269
 809.7	20211
 810.2	20290
 810.7	20244
 811.1	20275
 811.6	20285
 812.1	20250
 812.6	20215
 813.1	20275
 813.6	20305
 814.1	20287
 814.5	20258
 815.0	20289
 815.5	20261
 816.0	20221
 816.5	20305
 817.0	20261
 817.4	20248
 817.9	20294
 818.4	20231
 818.9	20330
 819.4	20288
 819.9	20269
 820.3	20247
 820.8	20259
 821.3	20266
 821.8	20297
 822.3	20237
 822.7	20226
 823.2	20293
 823.7	20247
 824.2	20261
 824.7	20245
 825.2	20270
 825.6	20256
 826.1	20249
 826.6	20311
 827.1	20298
 827.6	20296
 828.0	20239
 828.5	20221
 829.0	20266
 829.5	20211
 829.9	20221
 830.4	20287
 830.9	20273
 831.4	20305
 831.9	20257
 832.3	20349
 832.8	20291
 833.3	20288
 833.8	20378
 834.2	20374
 834.7	20217
 835.2	20316
 835.7	20324
 836.1	20322
 836.6	20313
 837.1	20318
 837.6	20331
 838.0	20368
 838.5	20401
 839.0	20403
 839.5	20386
 839.9	20307
 840.4	20322
 840.9	20288
 841.4	20337
 841.8	20365
 842.3	20381
 842.8	20407
 843.3	20410
 843.7	20302
 844.2	20293
 844.7	20391
 845.1	20359
 845.6	20286
 846.1	20307
 846.6	20351
 847.0	20245
 847.5	20301
 848.0	20291
 848.4	20339
 848.9	20307
 849.4	20295
 849.8	20321
 850.3	20323
 850.8	20375
 851.3	20339
 851.7	20343
 852.2	20352
 852.7	20347
 853.1	20325
 853.6	20286
 854.1	20325
 854.5	20296
 855.0	20289
 855.5	20290
 855.9	20357
 856.4	20358
 856.9	20266
 857.3	20331
 857.8	20312
 858.3	20363
 858.7	20321
 859.2	20338
 859.7	20335
 860.1	20392
 860.6	20369
 861.1	20314
 861.5	20371
 862.0	20383
 862.4	20363
 862.9	20326
 863.4	20371
 863.8	20375
 864.3	20383
 864.8	20303
 865.2	20362
 865.7	20393
 866.1	20409
 866.6	20329
 867.1	20417
 867.5	20409
 868.0	20383
 868.5	20337
 868.9	20354
 869.4	20465
 869.8	20424
 870.3	20378
 870.8	20458
 871.2	20413
 871.7	20411
 872.1	20363
 872.6	20417
 873.0	20402
 873.5	20486
 874.0	20470
 874.4	20348
 874.9	20378
 875.3	20334
 875.8	20228
 876.2	20012
 876.7	19871
 877.2	19557
 877.6	19172
 878.1	18830
