#xlabel Wavelength (nm)
#ylabel Spectrometer Array Counts
#title Exposure time is 11000 ms
## lambda	counts
 349.8	18766
 350.3	19040
 350.8	19305
 351.3	19522
 351.9	19646
 352.4	19785
 352.9	19869
 353.4	19851
 354.0	19861
 354.5	19907
 355.0	19915
 355.5	19934
 356.0	19887
 356.6	19855
 357.1	19903
 357.6	19879
 358.1	19909
 358.7	19850
 359.2	19867
 359.7	19893
 360.2	19933
 360.8	19902
 361.3	20003
 361.8	19951
 362.3	19981
 362.9	19939
 363.4	20018
 363.9	20025
 364.4	20062
 364.9	19963
 365.5	20048
 366.0	20034
 366.5	19989
 367.0	20039
 367.6	20071
 368.1	20073
 368.6	20013
 369.1	20076
 369.7	20129
 370.2	20052
 370.7	20060
 371.2	20110
 371.8	20170
 372.3	20090
 372.8	20181
 373.3	20198
 373.9	20143
 374.4	20165
 374.9	20225
 375.5	20110
 376.0	20251
 376.5	20218
 377.0	20251
 377.6	20200
 378.1	20291
 378.6	20234
 379.1	20240
 379.7	20226
 380.2	20313
 380.7	20325
 381.2	20287
 381.8	20282
 382.3	20331
 382.8	20317
 383.4	20375
 383.9	20322
 384.4	20487
 384.9	20399
 385.5	20411
 386.0	20424
 386.5	20499
 387.1	20428
 387.6	20462
 388.1	20464
 388.6	20490
 389.2	20479
 389.7	20514
 390.2	20501
 390.8	20611
 391.3	20591
 391.8	20599
 392.3	20596
 392.9	20604
 393.4	20607
 393.9	20695
 394.5	20715
 395.0	20669
 395.5	20702
 396.0	20713
 396.6	20685
 397.1	20798
 397.6	20798
 398.2	20806
 398.7	20807
 399.2	20910
 399.8	20783
 400.3	20855
 400.8	20902
 401.3	20875
 401.9	20899
 402.4	20930
 402.9	20921
 403.5	20957
 404.0	20957
 404.5	20917
 405.1	20935
 405.6	21047
 406.1	21035
 406.7	21052
 407.2	21075
 407.7	21172
 408.2	21179
 408.8	21200
 409.3	21252
 409.8	21308
 410.4	21287
 410.9	21308
 411.4	21254
 412.0	21341
 412.5	21402
 413.0	21359
 413.6	21418
 414.1	21389
 414.6	21428
 415.2	21490
 415.7	21432
 416.2	21495
 416.8	21497
 417.3	21489
 417.8	21522
 418.4	21624
 418.9	21570
 419.4	21723
 420.0	21613
 420.5	21691
 421.0	21637
 421.5	21737
 422.1	21724
 422.6	21788
 423.1	21825
 423.7	21800
 424.2	21790
 424.7	21835
 425.3	21821
 425.8	21851
 426.3	21839
 426.9	21909
 427.4	21863
 427.9	21989
 428.5	21935
 429.0	21992
 429.6	21966
 430.1	22071
 430.6	22090
 431.2	22055
 431.7	22187
 432.2	22178
 432.8	22175
 433.3	22317
 433.8	22343
 434.4	22341
 434.9	22382
 435.4	22461
 436.0	22459
 436.5	22478
 437.0	22567
 437.6	22559
 438.1	22626
 438.6	22646
 439.2	22680
 439.7	22674
 440.2	22621
 440.8	22654
 441.3	22662
 441.8	22666
 442.4	22635
 442.9	22662
 443.5	22696
 444.0	22696
 444.5	22726
 445.1	22634
 445.6	22678
 446.1	22722
 446.7	22757
 447.2	22793
 447.7	22789
 448.3	22895
 448.8	22881
 449.3	22949
 449.9	22923
 450.4	23071
 450.9	23145
 451.5	23178
 452.0	23192
 452.6	23247
 453.1	23353
 453.6	23397
 454.2	23323
 454.7	23431
 455.2	23491
 455.8	23567
 456.3	23533
 456.8	23677
 457.4	23624
 457.9	23654
 458.5	23701
 459.0	23674
 459.5	23731
 460.1	23684
 460.6	23733
 461.1	23723
 461.7	23770
 462.2	23718
 462.7	23759
 463.3	23689
 463.8	23767
 464.4	23833
 464.9	23789
 465.4	23870
 466.0	23784
 466.5	23870
 467.0	23823
 467.6	23910
 468.1	24025
 468.7	23987
 469.2	23923
 469.7	24058
 470.3	24054
 470.8	24131
 471.3	24133
 471.9	24128
 472.4	24209
 473.0	24273
 473.5	24324
 474.0	24345
 474.6	24380
 475.1	24400
 475.6	24495
 476.2	24527
 476.7	24522
 477.3	24604
 477.8	24567
 478.3	24507
 478.9	24739
 479.4	24649
 479.9	24687
 480.5	24697
 481.0	24751
 481.6	24794
 482.1	24888
 482.6	24894
 483.2	24940
 483.7	25071
 484.2	25039
 484.8	24905
 485.3	25030
 485.9	25129
 486.4	25121
 486.9	25165
 487.5	25146
 488.0	25183
 488.6	25263
 489.1	25297
 489.6	25363
 490.2	25382
 490.7	25356
 491.2	25333
 491.8	25406
 492.3	25367
 492.9	25421
 493.4	25438
 493.9	25461
 494.5	25458
 495.0	25519
 495.6	25433
 496.1	25447
 496.6	25496
 497.2	25404
 497.7	25378
 498.2	25451
 498.8	25469
 499.3	25391
 499.9	25447
 500.4	25448
 500.9	25444
 501.5	25457
 502.0	25551
 502.6	25549
 503.1	25674
 503.6	25678
 504.2	25667
 504.7	25711
 505.2	25817
 505.8	25846
 506.3	26001
 506.9	26065
 507.4	26089
 507.9	26120
 508.5	26211
 509.0	26316
 509.6	26453
 510.1	26470
 510.6	26559
 511.2	26634
 511.7	26683
 512.2	26787
 512.8	26857
 513.3	26862
 513.9	26881
 514.4	26978
 514.9	27083
 515.5	26993
 516.0	27080
 516.6	27031
 517.1	27079
 517.6	27047
 518.2	27017
 518.7	26928
 519.3	26965
 519.8	26972
 520.3	26939
 520.9	26875
 521.4	26854
 521.9	26891
 522.5	26771
 523.0	26765
 523.6	26789
 524.1	26625
 524.6	26662
 525.2	26683
 525.7	26726
 526.3	26666
 526.8	26767
 527.3	26729
 527.9	26768
 528.4	26774
 528.9	26861
 529.5	26908
 530.0	26935
 530.6	27028
 531.1	27075
 531.6	27038
 532.2	27199
 532.7	27220
 533.3	27320
 533.8	27497
 534.3	27598
 534.9	27655
 535.4	27671
 536.0	27801
 536.5	27896
 537.0	27926
 537.6	27993
 538.1	28100
 538.6	28175
 539.2	28157
 539.7	28220
 540.3	28349
 540.8	28354
 541.3	28345
 541.9	28406
 542.4	28418
 543.0	28504
 543.5	28471
 544.0	28456
 544.6	28494
 545.1	28513
 545.6	28537
 546.2	28518
 546.7	28415
 547.3	28475
 547.8	28452
 548.3	28487
 548.9	28384
 549.4	28377
 550.0	28337
 550.5	28397
 551.0	28429
 551.6	28374
 552.1	28381
 552.6	28383
 553.2	28325
 553.7	28312
 554.3	28346
 554.8	28417
 555.3	28275
 555.9	28351
 556.4	28335
 556.9	28452
 557.5	28494
 558.0	28468
 558.6	28458
 559.1	28545
 559.6	28548
 560.2	28587
 560.7	28610
 561.3	28599
 561.8	28599
 562.3	28751
 562.9	28755
 563.4	28811
 563.9	28815
 564.5	28853
 565.0	28855
 565.6	28893
 566.1	28903
 566.6	28916
 567.2	28915
 567.7	29015
 568.2	28959
 568.8	28959
 569.3	28957
 569.9	29018
 570.4	29000
 570.9	28993
 571.5	28991
 572.0	29000
 572.5	29061
 573.1	29019
 573.6	29095
 574.1	29094
 574.7	29114
 575.2	29103
 575.8	29169
 576.3	29264
 576.8	29247
 577.4	29278
 577.9	29325
 578.4	29317
 579.0	29359
 579.5	29490
 580.1	29439
 580.6	29496
 581.1	29598
 581.7	29655
 582.2	29625
 582.7	29683
 583.3	29759
 583.8	29756
 584.3	29732
 584.9	29815
 585.4	29826
 586.0	29835
 586.5	29887
 587.0	29876
 587.6	29970
 588.1	29941
 588.6	30021
 589.2	29971
 589.7	30003
 590.2	30007
 590.8	29996
 591.3	30015
 591.9	29956
 592.4	30005
 592.9	29927
 593.5	29901
 594.0	29880
 594.5	29875
 595.1	29819
 595.6	29763
 596.1	29797
 596.7	29741
 597.2	29753
 597.7	29673
 598.3	29661
 598.8	29621
 599.3	29591
 599.9	29527
 600.4	29504
 601.0	29489
 601.5	29473
 602.0	29447
 602.6	29394
 603.1	29412
 603.6	29411
 604.2	29504
 604.7	29427
 605.2	29500
 605.8	29426
 606.3	29467
 606.8	29549
 607.4	29555
 607.9	29618
 608.4	29587
 609.0	29653
 609.5	29717
 610.0	29719
 610.6	29836
 611.1	29789
 611.6	29869
 612.2	29902
 612.7	29983
 613.2	30025
 613.8	29988
 614.3	30069
 614.8	30151
 615.4	30147
 615.9	30288
 616.4	30397
 617.0	30389
 617.5	30521
 618.0	30599
 618.6	30607
 619.1	30699
 619.6	30819
 620.2	30903
 620.7	31039
 621.2	31067
 621.8	31158
 622.3	31241
 622.8	31270
 623.4	31346
 623.9	31443
 624.4	31453
 625.0	31487
 625.5	31494
 626.0	31519
 626.6	31582
 627.1	31568
 627.6	31517
 628.2	31489
 628.7	31531
 629.2	31504
 629.8	31509
 630.3	31490
 630.8	31459
 631.4	31407
 631.9	31383
 632.4	31246
 632.9	31220
 633.5	31178
 634.0	31103
 634.5	31113
 635.1	31013
 635.6	30971
 636.1	30903
 636.7	30889
 637.2	30853
 637.7	30710
 638.3	30778
 638.8	30727
 639.3	30715
 639.8	30618
 640.4	30612
 640.9	30609
 641.4	30505
 642.0	30467
 642.5	30465
 643.0	30425
 643.6	30506
 644.1	30453
 644.6	30462
 645.1	30474
 645.7	30479
 646.2	30427
 646.7	30452
 647.3	30487
 647.8	30511
 648.3	30481
 648.9	30545
 649.4	30472
 649.9	30554
 650.4	30588
 651.0	30655
 651.5	30685
 652.0	30762
 652.6	30743
 653.1	30851
 653.6	30794
 654.1	30879
 654.7	30872
 655.2	30989
 655.7	31047
 656.3	31089
 656.8	31078
 657.3	31150
 657.8	31133
 658.4	31170
 658.9	31216
 659.4	31302
 659.9	31327
 660.5	31319
 661.0	31382
 661.5	31429
 662.1	31408
 662.6	31435
 663.1	31404
 663.6	31511
 664.2	31455
 664.7	31438
 665.2	31374
 665.7	31489
 666.3	31455
 666.8	31445
 667.3	31449
 667.8	31411
 668.4	31429
 668.9	31426
 669.4	31394
 669.9	31409
 670.5	31325
 671.0	31341
 671.5	31286
 672.0	31320
 672.6	31299
 673.1	31326
 673.6	31219
 674.1	31239
 674.7	31214
 675.2	31241
 675.7	31103
 676.2	31081
 676.8	31131
 677.3	31123
 677.8	31035
 678.3	31125
 678.9	31043
 679.4	30971
 679.9	31023
 680.4	31006
 681.0	30956
 681.5	30985
 682.0	30929
 682.5	30949
 683.1	30851
 683.6	30875
 684.1	30811
 684.6	30909
 685.1	30843
 685.7	30862
 686.2	30828
 686.7	30781
 687.2	30774
 687.8	30833
 688.3	30777
 688.8	30795
 689.3	30739
 689.8	30765
 690.4	30758
 690.9	30765
 691.4	30789
 691.9	30791
 692.4	30775
 693.0	30837
 693.5	30806
 694.0	30796
 694.5	30790
 695.1	30767
 695.6	30729
 696.1	30805
 696.6	30793
 697.1	30812
 697.7	30836
 698.2	30771
 698.7	30788
 699.2	30752
 699.7	30766
 700.3	30715
 700.8	30691
 701.3	30780
 701.8	30729
 702.3	30673
 702.8	30672
 703.4	30649
 703.9	30627
 704.4	30589
 704.9	30546
 705.4	30537
 706.0	30590
 706.5	30557
 707.0	30459
 707.5	30424
 708.0	30429
 708.5	30360
 709.1	30411
 709.6	30353
 710.1	30279
 710.6	30243
 711.1	30199
 711.7	30195
 712.2	30150
 712.7	30142
 713.2	30078
 713.7	30041
 714.2	29968
 714.8	30023
 715.3	29927
 715.8	29893
 716.3	29866
 716.8	29762
 717.3	29721
 717.8	29795
 718.4	29789
 718.9	29711
 719.4	29788
 719.9	29673
 720.4	29721
 720.9	29747
 721.4	29740
 722.0	29772
 722.5	29765
 723.0	29777
 723.5	29803
 724.0	29789
 724.5	29791
 725.0	29842
 725.6	29795
 726.1	29873
 726.6	29999
 727.1	29945
 727.6	30008
 728.1	30053
 728.6	30019
 729.1	30030
 729.7	30025
 730.2	30067
 730.7	30100
 731.2	30146
 731.7	30147
 732.2	30178
 732.7	30149
 733.2	30207
 733.8	30183
 734.3	30221
 734.8	30213
 735.3	30253
 735.8	30263
 736.3	30253
 736.8	30311
 737.3	30377
 737.8	30341
 738.4	30345
 738.9	30306
 739.4	30402
 739.9	30398
 740.4	30427
 740.9	30409
 741.4	30422
 741.9	30411
 742.4	30429
 742.9	30422
 743.4	30496
 744.0	30407
 744.5	30397
 745.0	30402
 745.5	30467
 746.0	30435
 746.5	30439
 747.0	30367
 747.5	30341
 748.0	30313
 748.5	30328
 749.0	30323
 749.5	30397
 750.0	30219
 750.5	30253
 751.1	30231
 751.6	30219
 752.1	30182
 752.6	30142
 753.1	30165
 753.6	30076
 754.1	30028
 754.6	30047
 755.1	29977
 755.6	29961
 756.1	29857
 756.6	29921
 757.1	29871
 757.6	29824
 758.1	29767
 758.6	29737
 759.1	29636
 759.6	29656
 760.1	29575
 760.7	29495
 761.2	29559
 761.7	29487
 762.2	29441
 762.7	29449
 763.2	29302
 763.7	29355
 764.2	29254
 764.7	29222
 765.2	29217
 765.7	29151
 766.2	29087
 766.7	29099
 767.2	29007
 767.7	28977
 768.2	28933
 768.7	28861
 769.2	28817
 769.7	28831
 770.2	28778
 770.7	28753
 771.2	28703
 771.7	28662
 772.2	28653
 772.7	28677
 773.2	28637
 773.7	28562
 774.2	28503
 774.7	28523
 775.2	28486
 775.7	28452
 776.2	28428
 776.7	28444
 777.2	28352
 777.7	28411
 778.2	28376
 778.7	28409
 779.2	28401
 779.7	28419
 780.2	28249
 780.7	28305
 781.2	28291
 781.7	28344
 782.2	28263
 782.6	28329
 783.1	28315
 783.6	28279
 784.1	28225
 784.6	28217
 785.1	28223
 785.6	28212
 786.1	28221
 786.6	28232
 787.1	28175
 787.6	28159
 788.1	28136
 788.6	28117
 789.1	28090
 789.6	28103
 790.1	28107
 790.6	28095
 791.1	27983
 791.6	27969
 792.0	27966
 792.5	27978
 793.0	27935
 793.5	27914
 794.0	27836
 794.5	27899
 795.0	27838
 795.5	27801
 796.0	27778
 796.5	27700
 797.0	27691
 797.5	27710
 798.0	27524
 798.4	27523
 798.9	27471
 799.4	27461
 799.9	27432
 800.4	27263
 800.9	27321
 801.4	27340
 801.9	27265
 802.4	27146
 802.9	27164
 803.3	27127
 803.8	27043
 804.3	26961
 804.8	26983
 805.3	26895
 805.8	26829
 806.3	26783
 806.8	26730
 807.2	26684
 807.7	26614
 808.2	26595
 808.7	26484
 809.2	26452
 809.7	26350
 810.2	26374
 810.7	26271
 811.1	26251
 811.6	26215
 812.1	26127
 812.6	26045
 813.1	26062
 813.6	26050
 814.1	26005
 814.5	25927
 815.0	25917
 815.5	25835
 816.0	25767
 816.5	25794
 817.0	25726
 817.4	25680
 817.9	25683
 818.4	25577
 818.9	25639
 819.4	25574
 819.9	25519
 820.3	25465
 820.8	25444
 821.3	25434
 821.8	25415
 822.3	25330
 822.7	25293
 823.2	25335
 823.7	25266
 824.2	25250
 824.7	25212
 825.2	25205
 825.6	25159
 826.1	25132
 826.6	25172
 827.1	25132
 827.6	25114
 828.0	25042
 828.5	25006
 829.0	25029
 829.5	24959
 829.9	24945
 830.4	24992
 830.9	24950
 831.4	24973
 831.9	24911
 832.3	24972
 832.8	24895
 833.3	24891
 833.8	24949
 834.2	24940
 834.7	24771
 835.2	24856
 835.7	24842
 836.1	24831
 836.6	24797
 837.1	24792
 837.6	24787
 838.0	24817
 838.5	24825
 839.0	24816
 839.5	24809
 839.9	24710
 840.4	24711
 840.9	24665
 841.4	24689
 841.8	24716
 842.3	24704
 842.8	24717
 843.3	24709
 843.7	24590
 844.2	24566
 844.7	24643
 845.1	24607
 845.6	24519
 846.1	24523
 846.6	24548
 847.0	24442
 847.5	24479
 848.0	24448
 848.4	24469
 848.9	24413
 849.4	24383
 849.8	24383
 850.3	24373
 850.8	24411
 851.3	24354
 851.7	24334
 852.2	24323
 852.7	24301
 853.1	24271
 853.6	24198
 854.1	24223
 854.5	24167
 855.0	24137
 855.5	24115
 855.9	24161
 856.4	24127
 856.9	24031
 857.3	24064
 857.8	24011
 858.3	24015
 858.7	23951
 859.2	23956
 859.7	23947
 860.1	23991
 860.6	23943
 861.1	23855
 861.5	23884
 862.0	23859
 862.4	23814
 862.9	23747
 863.4	23767
 863.8	23749
 864.3	23717
 864.8	23624
 865.2	23641
 865.7	23640
 866.1	23639
 866.6	23533
 867.1	23596
 867.5	23561
 868.0	23520
 868.5	23456
 868.9	23436
 869.4	23527
 869.8	23471
 870.3	23419
 870.8	23481
 871.2	23425
 871.7	23419
 872.1	23356
 872.6	23407
 873.0	23371
 873.5	23445
 874.0	23430
 874.4	23297
 874.9	23319
 875.3	23253
 875.8	23128
 876.2	22885
 876.7	22696
 877.2	22314
 877.6	21860
 878.1	21415
