#xlabel Wavelength (nm)
#ylabel Spectrometer Array Counts
#title Exposure time is 11000 ms
## lambda	counts
 349.8	18761
 350.3	19031
 350.8	19291
 351.3	19507
 351.9	19629
 352.4	19766
 352.9	19849
 353.4	19823
 354.0	19835
 354.5	19883
 355.0	19890
 355.5	19911
 356.0	19871
 356.6	19831
 357.1	19886
 357.6	19856
 358.1	19885
 358.7	19832
 359.2	19850
 359.7	19867
 360.2	19914
 360.8	19883
 361.3	19987
 361.8	19933
 362.3	19965
 362.9	19927
 363.4	20006
 363.9	20013
 364.4	20045
 364.9	19947
 365.5	20032
 366.0	20017
 366.5	19971
 367.0	20021
 367.6	20051
 368.1	20054
 368.6	19990
 369.1	20055
 369.7	20103
 370.2	20032
 370.7	20043
 371.2	20092
 371.8	20150
 372.3	20071
 372.8	20159
 373.3	20177
 373.9	20121
 374.4	20149
 374.9	20207
 375.5	20095
 376.0	20229
 376.5	20191
 377.0	20234
 377.6	20185
 378.1	20271
 378.6	20211
 379.1	20222
 379.7	20208
 380.2	20301
 380.7	20302
 381.2	20265
 381.8	20263
 382.3	20309
 382.8	20299
 383.4	20354
 383.9	20303
 384.4	20466
 384.9	20371
 385.5	20392
 386.0	20401
 386.5	20481
 387.1	20413
 387.6	20443
 388.1	20445
 388.6	20468
 389.2	20465
 389.7	20493
 390.2	20480
 390.8	20588
 391.3	20571
 391.8	20579
 392.3	20571
 392.9	20582
 393.4	20588
 393.9	20671
 394.5	20686
 395.0	20648
 395.5	20677
 396.0	20691
 396.6	20662
 397.1	20773
 397.6	20775
 398.2	20785
 398.7	20787
 399.2	20891
 399.8	20757
 400.3	20831
 400.8	20881
 401.3	20847
 401.9	20871
 402.4	20903
 402.9	20899
 403.5	20935
 404.0	20935
 404.5	20888
 405.1	20914
 405.6	21025
 406.1	21014
 406.7	21028
 407.2	21056
 407.7	21144
 408.2	21157
 408.8	21175
 409.3	21225
 409.8	21279
 410.4	21261
 410.9	21275
 411.4	21231
 412.0	21313
 412.5	21381
 413.0	21333
 413.6	21392
 414.1	21363
 414.6	21407
 415.2	21457
 415.7	21408
 416.2	21469
 416.8	21466
 417.3	21467
 417.8	21489
 418.4	21593
 418.9	21535
 419.4	21691
 420.0	21584
 420.5	21661
 421.0	21604
 421.5	21710
 422.1	21691
 422.6	21761
 423.1	21794
 423.7	21768
 424.2	21758
 424.7	21802
 425.3	21791
 425.8	21816
 426.3	21813
 426.9	21881
 427.4	21829
 427.9	21955
 428.5	21905
 429.0	21959
 429.6	21936
 430.1	22038
 430.6	22059
 431.2	22023
 431.7	22154
 432.2	22143
 432.8	22140
 433.3	22279
 433.8	22313
 434.4	22307
 434.9	22349
 435.4	22425
 436.0	22426
 436.5	22441
 437.0	22529
 437.6	22525
 438.1	22591
 438.6	22611
 439.2	22647
 439.7	22638
 440.2	22584
 440.8	22622
 441.3	22621
 441.8	22627
 442.4	22598
 442.9	22622
 443.5	22667
 444.0	22659
 444.5	22686
 445.1	22600
 445.6	22645
 446.1	22687
 446.7	22723
 447.2	22753
 447.7	22759
 448.3	22855
 448.8	22851
 449.3	22913
 449.9	22884
 450.4	23034
 450.9	23106
 451.5	23143
 452.0	23159
 452.6	23207
 453.1	23317
 453.6	23361
 454.2	23287
 454.7	23393
 455.2	23449
 455.8	23528
 456.3	23494
 456.8	23642
 457.4	23588
 457.9	23612
 458.5	23661
 459.0	23633
 459.5	23688
 460.1	23640
 460.6	23688
 461.1	23677
 461.7	23727
 462.2	23683
 462.7	23715
 463.3	23649
 463.8	23719
 464.4	23793
 464.9	23744
 465.4	23824
 466.0	23739
 466.5	23830
 467.0	23775
 467.6	23866
 468.1	23975
 468.7	23930
 469.2	23889
 469.7	24011
 470.3	24015
 470.8	24086
 471.3	24093
 471.9	24083
 472.4	24161
 473.0	24229
 473.5	24274
 474.0	24298
 474.6	24332
 475.1	24351
 475.6	24455
 476.2	24483
 476.7	24481
 477.3	24559
 477.8	24517
 478.3	24460
 478.9	24691
 479.4	24599
 479.9	24640
 480.5	24649
 481.0	24701
 481.6	24749
 482.1	24846
 482.6	24846
 483.2	24889
 483.7	25021
 484.2	24997
 484.8	24861
 485.3	24981
 485.9	25077
 486.4	25074
 486.9	25123
 487.5	25096
 488.0	25132
 488.6	25211
 489.1	25246
 489.6	25307
 490.2	25329
 490.7	25306
 491.2	25279
 491.8	25356
 492.3	25308
 492.9	25371
 493.4	25385
 493.9	25407
 494.5	25403
 495.0	25467
 495.6	25380
 496.1	25388
 496.6	25445
 497.2	25356
 497.7	25324
 498.2	25403
 498.8	25417
 499.3	25335
 499.9	25394
 500.4	25402
 500.9	25394
 501.5	25403
 502.0	25500
 502.6	25507
 503.1	25623
 503.6	25621
 504.2	25610
 504.7	25661
 505.2	25764
 505.8	25797
 506.3	25945
 506.9	26003
 507.4	26032
 507.9	26060
 508.5	26153
 509.0	26261
 509.6	26390
 510.1	26408
 510.6	26497
 511.2	26573
 511.7	26618
 512.2	26730
 512.8	26798
 513.3	26805
 513.9	26829
 514.4	26912
 514.9	27025
 515.5	26929
 516.0	27017
 516.6	26977
 517.1	27024
 517.6	26984
 518.2	26956
 518.7	26875
 519.3	26913
 519.8	26915
 520.3	26877
 520.9	26816
 521.4	26794
 521.9	26825
 522.5	26713
 523.0	26707
 523.6	26725
 524.1	26565
 524.6	26609
 525.2	26629
 525.7	26669
 526.3	26609
 526.8	26712
 527.3	26666
 527.9	26716
 528.4	26721
 528.9	26803
 529.5	26846
 530.0	26872
 530.6	26972
 531.1	27017
 531.6	26975
 532.2	27143
 532.7	27159
 533.3	27257
 533.8	27434
 534.3	27535
 534.9	27585
 535.4	27609
 536.0	27737
 536.5	27828
 537.0	27859
 537.6	27935
 538.1	28031
 538.6	28109
 539.2	28089
 539.7	28154
 540.3	28290
 540.8	28293
 541.3	28275
 541.9	28339
 542.4	28351
 543.0	28434
 543.5	28407
 544.0	28385
 544.6	28427
 545.1	28445
 545.6	28477
 546.2	28457
 546.7	28350
 547.3	28415
 547.8	28381
 548.3	28420
 548.9	28316
 549.4	28306
 550.0	28269
 550.5	28333
 551.0	28367
 551.6	28311
 552.1	28309
 552.6	28321
 553.2	28264
 553.7	28248
 554.3	28283
 554.8	28356
 555.3	28212
 555.9	28284
 556.4	28270
 556.9	28388
 557.5	28425
 558.0	28395
 558.6	28398
 559.1	28481
 559.6	28484
 560.2	28515
 560.7	28548
 561.3	28535
 561.8	28537
 562.3	28683
 562.9	28683
 563.4	28746
 563.9	28743
 564.5	28777
 565.0	28786
 565.6	28823
 566.1	28835
 566.6	28845
 567.2	28842
 567.7	28952
 568.2	28886
 568.8	28892
 569.3	28891
 569.9	28948
 570.4	28937
 570.9	28922
 571.5	28923
 572.0	28927
 572.5	28995
 573.1	28951
 573.6	29026
 574.1	29025
 574.7	29039
 575.2	29038
 575.8	29101
 576.3	29193
 576.8	29178
 577.4	29212
 577.9	29247
 578.4	29253
 579.0	29277
 579.5	29425
 580.1	29365
 580.6	29423
 581.1	29525
 581.7	29584
 582.2	29557
 582.7	29616
 583.3	29687
 583.8	29691
 584.3	29658
 584.9	29740
 585.4	29758
 586.0	29762
 586.5	29817
 587.0	29811
 587.6	29898
 588.1	29873
 588.6	29944
 589.2	29905
 589.7	29934
 590.2	29927
 590.8	29919
 591.3	29950
 591.9	29881
 592.4	29930
 592.9	29855
 593.5	29827
 594.0	29805
 594.5	29799
 595.1	29751
 595.6	29695
 596.1	29725
 596.7	29676
 597.2	29687
 597.7	29602
 598.3	29593
 598.8	29545
 599.3	29521
 599.9	29458
 600.4	29435
 601.0	29422
 601.5	29403
 602.0	29377
 602.6	29328
 603.1	29343
 603.6	29343
 604.2	29437
 604.7	29359
 605.2	29437
 605.8	29357
 606.3	29398
 606.8	29475
 607.4	29479
 607.9	29556
 608.4	29515
 609.0	29575
 609.5	29645
 610.0	29649
 610.6	29769
 611.1	29721
 611.6	29796
 612.2	29828
 612.7	29914
 613.2	29957
 613.8	29924
 614.3	30000
 614.8	30086
 615.4	30075
 615.9	30221
 616.4	30321
 617.0	30319
 617.5	30449
 618.0	30527
 618.6	30535
 619.1	30627
 619.6	30749
 620.2	30836
 620.7	30961
 621.2	30995
 621.8	31079
 622.3	31162
 622.8	31197
 623.4	31271
 623.9	31367
 624.4	31377
 625.0	31405
 625.5	31418
 626.0	31439
 626.6	31509
 627.1	31493
 627.6	31441
 628.2	31403
 628.7	31453
 629.2	31426
 629.8	31436
 630.3	31424
 630.8	31384
 631.4	31330
 631.9	31307
 632.4	31165
 632.9	31145
 633.5	31107
 634.0	31025
 634.5	31038
 635.1	30937
 635.6	30896
 636.1	30834
 636.7	30815
 637.2	30776
 637.7	30639
 638.3	30710
 638.8	30655
 639.3	30651
 639.8	30549
 640.4	30539
 640.9	30539
 641.4	30431
 642.0	30395
 642.5	30397
 643.0	30352
 643.6	30436
 644.1	30373
 644.6	30395
 645.1	30405
 645.7	30407
 646.2	30354
 646.7	30382
 647.3	30409
 647.8	30441
 648.3	30415
 648.9	30467
 649.4	30397
 649.9	30486
 650.4	30519
 651.0	30588
 651.5	30619
 652.0	30697
 652.6	30673
 653.1	30775
 653.6	30722
 654.1	30811
 654.7	30802
 655.2	30919
 655.7	30981
 656.3	31020
 656.8	31007
 657.3	31084
 657.8	31067
 658.4	31099
 658.9	31143
 659.4	31235
 659.9	31253
 660.5	31243
 661.0	31305
 661.5	31360
 662.1	31342
 662.6	31363
 663.1	31333
 663.6	31433
 664.2	31384
 664.7	31367
 665.2	31304
 665.7	31418
 666.3	31379
 666.8	31374
 667.3	31374
 667.8	31342
 668.4	31353
 668.9	31359
 669.4	31321
 669.9	31334
 670.5	31257
 671.0	31269
 671.5	31215
 672.0	31246
 672.6	31225
 673.1	31247
 673.6	31150
 674.1	31169
 674.7	31145
 675.2	31167
 675.7	31031
 676.2	31006
 676.8	31063
 677.3	31055
 677.8	30971
 678.3	31058
 678.9	30978
 679.4	30904
 679.9	30955
 680.4	30934
 681.0	30889
 681.5	30913
 682.0	30863
 682.5	30883
 683.1	30786
 683.6	30803
 684.1	30740
 684.6	30839
 685.1	30776
 685.7	30790
 686.2	30762
 686.7	30714
 687.2	30711
 687.8	30769
 688.3	30713
 688.8	30731
 689.3	30665
 689.8	30699
 690.4	30687
 690.9	30701
 691.4	30727
 691.9	30723
 692.4	30705
 693.0	30773
 693.5	30741
 694.0	30727
 694.5	30723
 695.1	30709
 695.6	30663
 696.1	30739
 696.6	30727
 697.1	30750
 697.7	30771
 698.2	30701
 698.7	30733
 699.2	30691
 699.7	30700
 700.3	30647
 700.8	30628
 701.3	30704
 701.8	30670
 702.3	30607
 702.8	30607
 703.4	30593
 703.9	30559
 704.4	30523
 704.9	30479
 705.4	30471
 706.0	30525
 706.5	30491
 707.0	30393
 707.5	30367
 708.0	30373
 708.5	30301
 709.1	30343
 709.6	30291
 710.1	30218
 710.6	30179
 711.1	30141
 711.7	30130
 712.2	30087
 712.7	30077
 713.2	30015
 713.7	29985
 714.2	29902
 714.8	29959
 715.3	29867
 715.8	29835
 716.3	29806
 716.8	29699
 717.3	29665
 717.8	29741
 718.4	29727
 718.9	29652
 719.4	29724
 719.9	29620
 720.4	29665
 720.9	29695
 721.4	29676
 722.0	29711
 722.5	29715
 723.0	29719
 723.5	29744
 724.0	29725
 724.5	29731
 725.0	29777
 725.6	29739
 726.1	29808
 726.6	29939
 727.1	29887
 727.6	29949
 728.1	29989
 728.6	29955
 729.1	29965
 729.7	29969
 730.2	30004
 730.7	30043
 731.2	30084
 731.7	30081
 732.2	30115
 732.7	30093
 733.2	30145
 733.8	30123
 734.3	30158
 734.8	30154
 735.3	30193
 735.8	30200
 736.3	30195
 736.8	30253
 737.3	30321
 737.8	30272
 738.4	30283
 738.9	30254
 739.4	30349
 739.9	30340
 740.4	30369
 740.9	30343
 741.4	30358
 741.9	30352
 742.4	30375
 742.9	30363
 743.4	30437
 744.0	30341
 744.5	30332
 745.0	30341
 745.5	30406
 746.0	30378
 746.5	30375
 747.0	30312
 747.5	30285
 748.0	30252
 748.5	30268
 749.0	30260
 749.5	30336
 750.0	30157
 750.5	30195
 751.1	30175
 751.6	30165
 752.1	30125
 752.6	30083
 753.1	30098
 753.6	30014
 754.1	29965
 754.6	29981
 755.1	29916
 755.6	29905
 756.1	29794
 756.6	29869
 757.1	29813
 757.6	29774
 758.1	29710
 758.6	29683
 759.1	29582
 759.6	29602
 760.1	29518
 760.7	29449
 761.2	29504
 761.7	29423
 762.2	29387
 762.7	29391
 763.2	29252
 763.7	29299
 764.2	29201
 764.7	29167
 765.2	29167
 765.7	29098
 766.2	29035
 766.7	29039
 767.2	28952
 767.7	28922
 768.2	28878
 768.7	28809
 769.2	28764
 769.7	28783
 770.2	28729
 770.7	28705
 771.2	28649
 771.7	28613
 772.2	28604
 772.7	28631
 773.2	28586
 773.7	28516
 774.2	28458
 774.7	28469
 775.2	28433
 775.7	28401
 776.2	28378
 776.7	28393
 777.2	28299
 777.7	28367
 778.2	28327
 778.7	28363
 779.2	28351
 779.7	28367
 780.2	28198
 780.7	28260
 781.2	28242
 781.7	28295
 782.2	28215
 782.6	28279
 783.1	28270
 783.6	28225
 784.1	28175
 784.6	28168
 785.1	28171
 785.6	28167
 786.1	28183
 786.6	28189
 787.1	28127
 787.6	28111
 788.1	28085
 788.6	28069
 789.1	28049
 789.6	28054
 790.1	28065
 790.6	28044
 791.1	27942
 791.6	27926
 792.0	27911
 792.5	27931
 793.0	27891
 793.5	27863
 794.0	27784
 794.5	27849
 795.0	27793
 795.5	27752
 796.0	27728
 796.5	27649
 797.0	27641
 797.5	27659
 798.0	27479
 798.4	27478
 798.9	27437
 799.4	27414
 799.9	27388
 800.4	27216
 800.9	27281
 801.4	27295
 801.9	27217
 802.4	27101
 802.9	27124
 803.3	27079
 803.8	27001
 804.3	26919
 804.8	26935
 805.3	26856
 805.8	26789
 806.3	26743
 806.8	26687
 807.2	26641
 807.7	26577
 808.2	26555
 808.7	26441
 809.2	26410
 809.7	26310
 810.2	26335
 810.7	26235
 811.1	26212
 811.6	26171
 812.1	26091
 812.6	26013
 813.1	26026
 813.6	26007
 814.1	25960
 814.5	25889
 815.0	25877
 815.5	25799
 816.0	25730
 816.5	25755
 817.0	25678
 817.4	25639
 817.9	25646
 818.4	25539
 818.9	25607
 819.4	25534
 819.9	25485
 820.3	25431
 820.8	25411
 821.3	25391
 821.8	25379
 822.3	25293
 822.7	25257
 823.2	25303
 823.7	25230
 824.2	25223
 824.7	25176
 825.2	25169
 825.6	25126
 826.1	25098
 826.6	25137
 827.1	25099
 827.6	25086
 828.0	25011
 828.5	24971
 829.0	24991
 829.5	24917
 829.9	24905
 830.4	24955
 830.9	24923
 831.4	24936
 831.9	24873
 832.3	24935
 832.8	24860
 833.3	24858
 833.8	24919
 834.2	24905
 834.7	24734
 835.2	24815
 835.7	24810
 836.1	24799
 836.6	24769
 837.1	24757
 837.6	24754
 838.0	24778
 838.5	24793
 839.0	24782
 839.5	24761
 839.9	24677
 840.4	24677
 840.9	24634
 841.4	24654
 841.8	24679
 842.3	24676
 842.8	24689
 843.3	24671
 843.7	24553
 844.2	24535
 844.7	24607
 845.1	24571
 845.6	24483
 846.1	24496
 846.6	24517
 847.0	24406
 847.5	24451
 848.0	24410
 848.4	24439
 848.9	24389
 849.4	24353
 849.8	24354
 850.3	24347
 850.8	24377
 851.3	24323
 851.7	24303
 852.2	24293
 852.7	24270
 853.1	24236
 853.6	24170
 854.1	24195
 854.5	24137
 855.0	24118
 855.5	24086
 855.9	24134
 856.4	24099
 856.9	23999
 857.3	24031
 857.8	23975
 858.3	23987
 858.7	23919
 859.2	23929
 859.7	23921
 860.1	23961
 860.6	23913
 861.1	23822
 861.5	23851
 862.0	23826
 862.4	23783
 862.9	23720
 863.4	23737
 863.8	23719
 864.3	23694
 864.8	23586
 865.2	23610
 865.7	23606
 866.1	23610
 866.6	23503
 867.1	23567
 867.5	23530
 868.0	23498
 868.5	23434
 868.9	23407
 869.4	23501
 869.8	23451
 870.3	23389
 870.8	23454
 871.2	23401
 871.7	23387
 872.1	23327
 872.6	23372
 873.0	23344
 873.5	23410
 874.0	23391
 874.4	23265
 874.9	23286
 875.3	23224
 875.8	23099
 876.2	22858
 876.7	22674
 877.2	22296
 877.6	21839
 878.1	21396
