#xlabel Wavelength (nm)
#ylabel Spectrometer Array Counts
#title Exposure time is 11000 ms
## lambda	counts
 349.8	18536
 350.3	18807
 350.8	19066
 351.3	19279
 351.9	19396
 352.4	19531
 352.9	19605
 353.4	19578
 354.0	19582
 354.5	19630
 355.0	19632
 355.5	19645
 356.0	19601
 356.6	19562
 357.1	19611
 357.6	19586
 358.1	19607
 358.7	19545
 359.2	19561
 359.7	19574
 360.2	19611
 360.8	19572
 361.3	19667
 361.8	19607
 362.3	19634
 362.9	19582
 363.4	19656
 363.9	19661
 364.4	19684
 364.9	19589
 365.5	19657
 366.0	19642
 366.5	19589
 367.0	19628
 367.6	19658
 368.1	19653
 368.6	19579
 369.1	19642
 369.7	19685
 370.2	19599
 370.7	19598
 371.2	19637
 371.8	19691
 372.3	19599
 372.8	19682
 373.3	19689
 373.9	19624
 374.4	19637
 374.9	19684
 375.5	19562
 376.0	19695
 376.5	19650
 377.0	19666
 377.6	19609
 378.1	19680
 378.6	19611
 379.1	19606
 379.7	19580
 380.2	19649
 380.7	19649
 381.2	19599
 381.8	19584
 382.3	19618
 382.8	19595
 383.4	19641
 383.9	19585
 384.4	19737
 384.9	19637
 385.5	19653
 386.0	19650
 386.5	19723
 387.1	19641
 387.6	19667
 388.1	19660
 388.6	19671
 389.2	19652
 389.7	19661
 390.2	19636
 390.8	19720
 391.3	19687
 391.8	19669
 392.3	19643
 392.9	19632
 393.4	19610
 393.9	19679
 394.5	19670
 395.0	19603
 395.5	19625
 396.0	19619
 396.6	19575
 397.1	19665
 397.6	19659
 398.2	19655
 398.7	19646
 399.2	19741
 399.8	19605
 400.3	19673
 400.8	19714
 401.3	19675
 401.9	19690
 402.4	19706
 402.9	19686
 403.5	19704
 404.0	19685
 404.5	19628
 405.1	19623
 405.6	19717
 406.1	19681
 406.7	19672
 407.2	19667
 407.7	19743
 408.2	19727
 408.8	19719
 409.3	19739
 409.8	19778
 410.4	19729
 410.9	19723
 411.4	19657
 412.0	19713
 412.5	19762
 413.0	19703
 413.6	19741
 414.1	19682
 414.6	19711
 415.2	19750
 415.7	19675
 416.2	19723
 416.8	19701
 417.3	19674
 417.8	19685
 418.4	19769
 418.9	19696
 419.4	19828
 420.0	19695
 420.5	19758
 421.0	19689
 421.5	19771
 422.1	19738
 422.6	19786
 423.1	19808
 423.7	19769
 424.2	19745
 424.7	19776
 425.3	19741
 425.8	19761
 426.3	19738
 426.9	19791
 427.4	19729
 427.9	19835
 428.5	19757
 429.0	19788
 429.6	19738
 430.1	19810
 430.6	19795
 431.2	19711
 431.7	19806
 432.2	19753
 432.8	19713
 433.3	19807
 433.8	19798
 434.4	19759
 434.9	19755
 435.4	19797
 436.0	19758
 436.5	19740
 437.0	19813
 437.6	19774
 438.1	19824
 438.6	19815
 439.2	19844
 439.7	19823
 440.2	19760
 440.8	19799
 441.3	19791
 441.8	19795
 442.4	19753
 442.9	19783
 443.5	19815
 444.0	19809
 444.5	19835
 445.1	19739
 445.6	19771
 446.1	19785
 446.7	19795
 447.2	19808
 447.7	19781
 448.3	19839
 448.8	19790
 449.3	19815
 449.9	19739
 450.4	19822
 450.9	19850
 451.5	19835
 452.0	19781
 452.6	19783
 453.1	19823
 453.6	19820
 454.2	19688
 454.7	19752
 455.2	19757
 455.8	19797
 456.3	19724
 456.8	19846
 457.4	19753
 457.9	19766
 458.5	19805
 459.0	19756
 459.5	19793
 460.1	19741
 460.6	19789
 461.1	19775
 461.7	19816
 462.2	19763
 462.7	19810
 463.3	19731
 463.8	19799
 464.4	19870
 464.9	19805
 465.4	19866
 466.0	19754
 466.5	19824
 467.0	19745
 467.6	19808
 468.1	19889
 468.7	19807
 469.2	19721
 469.7	19807
 470.3	19771
 470.8	19805
 471.3	19763
 471.9	19711
 472.4	19761
 473.0	19792
 473.5	19797
 474.0	19781
 474.6	19773
 475.1	19759
 475.6	19818
 476.2	19822
 476.7	19786
 477.3	19842
 477.8	19773
 478.3	19686
 478.9	19896
 479.4	19762
 479.9	19767
 480.5	19740
 481.0	19757
 481.6	19768
 482.1	19820
 482.6	19793
 483.2	19786
 483.7	19900
 484.2	19819
 484.8	19634
 485.3	19730
 485.9	19801
 486.4	19753
 486.9	19764
 487.5	19713
 488.0	19707
 488.6	19767
 489.1	19765
 489.6	19813
 490.2	19806
 490.7	19753
 491.2	19717
 491.8	19768
 492.3	19715
 492.9	19760
 493.4	19774
 493.9	19783
 494.5	19784
 495.0	19859
 495.6	19769
 496.1	19785
 496.6	19849
 497.2	19755
 497.7	19727
 498.2	19817
 498.8	19842
 499.3	19751
 499.9	19805
 500.4	19803
 500.9	19773
 501.5	19758
 502.0	19819
 502.6	19791
 503.1	19863
 503.6	19819
 504.2	19756
 504.7	19749
 505.2	19803
 505.8	19775
 506.3	19840
 506.9	19828
 507.4	19774
 507.9	19733
 508.5	19745
 509.0	19768
 509.6	19819
 510.1	19771
 510.6	19793
 511.2	19797
 511.7	19765
 512.2	19824
 512.8	19828
 513.3	19781
 513.9	19757
 514.4	19808
 514.9	19874
 515.5	19768
 516.0	19842
 516.6	19811
 517.1	19869
 517.6	19849
 518.2	19827
 518.7	19763
 519.3	19826
 519.8	19875
 520.3	19880
 520.9	19840
 521.4	19852
 521.9	19914
 522.5	19839
 523.0	19875
 523.6	19920
 524.1	19766
 524.6	19819
 525.2	19847
 525.7	19877
 526.3	19787
 526.8	19885
 527.3	19821
 527.9	19836
 528.4	19815
 528.9	19866
 529.5	19871
 530.0	19843
 530.6	19882
 531.1	19875
 531.6	19769
 532.2	19881
 532.7	19818
 533.3	19835
 533.8	19949
 534.3	19963
 534.9	19941
 535.4	19866
 536.0	19921
 536.5	19958
 537.0	19903
 537.6	19907
 538.1	19945
 538.6	19957
 539.2	19879
 539.7	19879
 540.3	19977
 540.8	19930
 541.3	19877
 541.9	19901
 542.4	19899
 543.0	19965
 543.5	19919
 544.0	19893
 544.6	19943
 545.1	19950
 545.6	19986
 546.2	19972
 546.7	19876
 547.3	19939
 547.8	19924
 548.3	19974
 548.9	19889
 549.4	19894
 550.0	19864
 550.5	19934
 551.0	19981
 551.6	19923
 552.1	19944
 552.6	19946
 553.2	19919
 553.7	19892
 554.3	19938
 554.8	20007
 555.3	19849
 555.9	19921
 556.4	19876
 556.9	19966
 557.5	19995
 558.0	19934
 558.6	19903
 559.1	19978
 559.6	19949
 560.2	19941
 560.7	19940
 561.3	19903
 561.8	19869
 562.3	19985
 562.9	19959
 563.4	19985
 563.9	19965
 564.5	19969
 565.0	19948
 565.6	19966
 566.1	19964
 566.6	19959
 567.2	19945
 567.7	20052
 568.2	19946
 568.8	19960
 569.3	19925
 569.9	20001
 570.4	19985
 570.9	19953
 571.5	19942
 572.0	19930
 572.5	19985
 573.1	19927
 573.6	19970
 574.1	19959
 574.7	19947
 575.2	19913
 575.8	19947
 576.3	20013
 576.8	19971
 577.4	19976
 577.9	19979
 578.4	19931
 579.0	19927
 579.5	20021
 580.1	19935
 580.6	19931
 581.1	20002
 581.7	20010
 582.2	19937
 582.7	19972
 583.3	20014
 583.8	19972
 584.3	19912
 584.9	19966
 585.4	19957
 586.0	19922
 586.5	19953
 587.0	19902
 587.6	19978
 588.1	19921
 588.6	19990
 589.2	19930
 589.7	19943
 590.2	19935
 590.8	19928
 591.3	19953
 591.9	19898
 592.4	19968
 592.9	19907
 593.5	19896
 594.0	19897
 594.5	19919
 595.1	19908
 595.6	19891
 596.1	19960
 596.7	19925
 597.2	19972
 597.7	19925
 598.3	19931
 598.8	19904
 599.3	19929
 599.9	19909
 600.4	19911
 601.0	19923
 601.5	19916
 602.0	19906
 602.6	19859
 603.1	19877
 603.6	19874
 604.2	19980
 604.7	19881
 605.2	19950
 605.8	19855
 606.3	19878
 606.8	19947
 607.4	19907
 607.9	19937
 608.4	19871
 609.0	19905
 609.5	19949
 610.0	19904
 610.6	19999
 611.1	19899
 611.6	19914
 612.2	19903
 612.7	19952
 613.2	19934
 613.8	19847
 614.3	19866
 614.8	19913
 615.4	19823
 615.9	19896
 616.4	19937
 617.0	19870
 617.5	19953
 618.0	19950
 618.6	19853
 619.1	19871
 619.6	19935
 620.2	19903
 620.7	19941
 621.2	19886
 621.8	19911
 622.3	19919
 622.8	19861
 623.4	19882
 623.9	19934
 624.4	19896
 625.0	19886
 625.5	19890
 626.0	19896
 626.6	19935
 627.1	19931
 627.6	19879
 628.2	19845
 628.7	19878
 629.2	19861
 629.8	19895
 630.3	19922
 630.8	19904
 631.4	19905
 631.9	19939
 632.4	19833
 632.9	19873
 633.5	19881
 634.0	19847
 634.5	19953
 635.1	19887
 635.6	19875
 636.1	19864
 636.7	19941
 637.2	19942
 637.7	19851
 638.3	19966
 638.8	19976
 639.3	19990
 639.8	19951
 640.4	19970
 640.9	20003
 641.4	19914
 642.0	19914
 642.5	19940
 643.0	19911
 643.6	20003
 644.1	19955
 644.6	19965
 645.1	20009
 645.7	19988
 646.2	19952
 646.7	19964
 647.3	19998
 647.8	19990
 648.3	19964
 648.9	19996
 649.4	19903
 649.9	19973
 650.4	19971
 651.0	20003
 651.5	20013
 652.0	20054
 652.6	19989
 653.1	20059
 653.6	19953
 654.1	20034
 654.7	19970
 655.2	20042
 655.7	20069
 656.3	20082
 656.8	20012
 657.3	20059
 657.8	20004
 658.4	19976
 658.9	19975
 659.4	20067
 659.9	20045
 660.5	20015
 661.0	20057
 661.5	20092
 662.1	20046
 662.6	20054
 663.1	20010
 663.6	20095
 664.2	20046
 664.7	20010
 665.2	19933
 665.7	20065
 666.3	20035
 666.8	20045
 667.3	20051
 667.8	20008
 668.4	20041
 668.9	20046
 669.4	20037
 669.9	20075
 670.5	20015
 671.0	20035
 671.5	19988
 672.0	20063
 672.6	20071
 673.1	20096
 673.6	20013
 674.1	20056
 674.7	20039
 675.2	20106
 675.7	19959
 676.2	19987
 676.8	20039
 677.3	20065
 677.8	19992
 678.3	20115
 678.9	20049
 679.4	20004
 679.9	20069
 680.4	20083
 681.0	20046
 681.5	20094
 682.0	20069
 682.5	20095
 683.1	20009
 683.6	20076
 684.1	20015
 684.6	20122
 685.1	20057
 685.7	20087
 686.2	20058
 686.7	20023
 687.2	20015
 687.8	20094
 688.3	20028
 688.8	20067
 689.3	20003
 689.8	20036
 690.4	20034
 690.9	20042
 691.4	20032
 691.9	20069
 692.4	20018
 693.0	20092
 693.5	20060
 694.0	20045
 694.5	20040
 695.1	20015
 695.6	19977
 696.1	20052
 696.6	20037
 697.1	20051
 697.7	20081
 698.2	20017
 698.7	20038
 699.2	19998
 699.7	20005
 700.3	19993
 700.8	19971
 701.3	20091
 701.8	20051
 702.3	19997
 702.8	20005
 703.4	19975
 703.9	20001
 704.4	20005
 704.9	19969
 705.4	19978
 706.0	20095
 706.5	20087
 707.0	20000
 707.5	19987
 708.0	20040
 708.5	19993
 709.1	20065
 709.6	20037
 710.1	20007
 710.6	19993
 711.1	20007
 711.7	20032
 712.2	20048
 712.7	20059
 713.2	20042
 713.7	20041
 714.2	20011
 714.8	20097
 715.3	20047
 715.8	20060
 716.3	20072
 716.8	19976
 717.3	19963
 717.8	20081
 718.4	20091
 718.9	20023
 719.4	20111
 719.9	20014
 720.4	20064
 720.9	20069
 721.4	20071
 722.0	20085
 722.5	20071
 723.0	20051
 723.5	20061
 724.0	20021
 724.5	20015
 725.0	20025
 725.6	19956
 726.1	20009
 726.6	20130
 727.1	20065
 727.6	20101
 728.1	20116
 728.6	20071
 729.1	20053
 729.7	20045
 730.2	20066
 730.7	20107
 731.2	20135
 731.7	20122
 732.2	20124
 732.7	20106
 733.2	20156
 733.8	20129
 734.3	20141
 734.8	20105
 735.3	20127
 735.8	20109
 736.3	20074
 736.8	20103
 737.3	20138
 737.8	20084
 738.4	20077
 738.9	20019
 739.4	20110
 739.9	20096
 740.4	20095
 740.9	20087
 741.4	20083
 741.9	20077
 742.4	20095
 742.9	20082
 743.4	20178
 744.0	20097
 744.5	20091
 745.0	20111
 745.5	20199
 746.0	20177
 746.5	20181
 747.0	20131
 747.5	20118
 748.0	20091
 748.5	20107
 749.0	20141
 749.5	20232
 750.0	20067
 750.5	20145
 751.1	20163
 751.6	20163
 752.1	20159
 752.6	20132
 753.1	20170
 753.6	20110
 754.1	20089
 754.6	20143
 755.1	20105
 755.6	20126
 756.1	20052
 756.6	20168
 757.1	20138
 757.6	20132
 758.1	20106
 758.6	20136
 759.1	20066
 759.6	20123
 760.1	20073
 760.7	20056
 761.2	20137
 761.7	20085
 762.2	20086
 762.7	20152
 763.2	20006
 763.7	20111
 764.2	20053
 764.7	20069
 765.2	20110
 765.7	20098
 766.2	20065
 766.7	20127
 767.2	20088
 767.7	20105
 768.2	20095
 768.7	20073
 769.2	20077
 769.7	20140
 770.2	20113
 770.7	20118
 771.2	20111
 771.7	20085
 772.2	20113
 772.7	20167
 773.2	20154
 773.7	20110
 774.2	20059
 774.7	20119
 775.2	20116
 775.7	20103
 776.2	20104
 776.7	20129
 777.2	20054
 777.7	20140
 778.2	20130
 778.7	20174
 779.2	20189
 779.7	20222
 780.2	20066
 780.7	20138
 781.2	20149
 781.7	20231
 782.2	20146
 782.6	20235
 783.1	20245
 783.6	20207
 784.1	20175
 784.6	20165
 785.1	20183
 785.6	20171
 786.1	20211
 786.6	20231
 787.1	20174
 787.6	20187
 788.1	20187
 788.6	20166
 789.1	20174
 789.6	20220
 790.1	20238
 790.6	20244
 791.1	20151
 791.6	20163
 792.0	20200
 792.5	20236
 793.0	20229
 793.5	20228
 794.0	20176
 794.5	20276
 795.0	20266
 795.5	20245
 796.0	20267
 796.5	20217
 797.0	20251
 797.5	20305
 798.0	20165
 798.4	20223
 798.9	20217
 799.4	20250
 799.9	20271
 800.4	20135
 800.9	20249
 801.4	20332
 801.9	20305
 802.4	20248
 802.9	20327
 803.3	20335
 803.8	20308
 804.3	20264
 804.8	20344
 805.3	20305
 805.8	20309
 806.3	20316
 806.8	20309
 807.2	20325
 807.7	20305
 808.2	20348
 808.7	20269
 809.2	20293
 809.7	20236
 810.2	20313
 810.7	20262
 811.1	20292
 811.6	20303
 812.1	20271
 812.6	20237
 813.1	20300
 813.6	20327
 814.1	20311
 814.5	20277
 815.0	20311
 815.5	20283
 816.0	20245
 816.5	20323
 817.0	20278
 817.4	20273
 817.9	20319
 818.4	20255
 818.9	20349
 819.4	20311
 819.9	20289
 820.3	20265
 820.8	20282
 821.3	20293
 821.8	20325
 822.3	20259
 822.7	20249
 823.2	20317
 823.7	20273
 824.2	20284
 824.7	20271
 825.2	20292
 825.6	20274
 826.1	20272
 826.6	20329
 827.1	20315
 827.6	20319
 828.0	20260
 828.5	20240
 829.0	20283
 829.5	20235
 829.9	20240
 830.4	20307
 830.9	20296
 831.4	20324
 831.9	20282
 832.3	20373
 832.8	20312
 833.3	20310
 833.8	20397
 834.2	20398
 834.7	20240
 835.2	20341
 835.7	20347
 836.1	20345
 836.6	20328
 837.1	20339
 837.6	20351
 838.0	20388
 838.5	20421
 839.0	20425
 839.5	20413
 839.9	20335
 840.4	20348
 840.9	20313
 841.4	20354
 841.8	20388
 842.3	20403
 842.8	20432
 843.3	20431
 843.7	20329
 844.2	20316
 844.7	20415
 845.1	20380
 845.6	20306
 846.1	20331
 846.6	20369
 847.0	20266
 847.5	20331
 848.0	20313
 848.4	20360
 848.9	20326
 849.4	20317
 849.8	20353
 850.3	20342
 850.8	20397
 851.3	20367
 851.7	20366
 852.2	20373
 852.7	20368
 853.1	20347
 853.6	20317
 854.1	20350
 854.5	20318
 855.0	20314
 855.5	20309
 855.9	20381
 856.4	20376
 856.9	20284
 857.3	20355
 857.8	20335
 858.3	20386
 858.7	20347
 859.2	20364
 859.7	20355
 860.1	20410
 860.6	20398
 861.1	20339
 861.5	20391
 862.0	20403
 862.4	20387
 862.9	20349
 863.4	20397
 863.8	20398
 864.3	20404
 864.8	20329
 865.2	20383
 865.7	20416
 866.1	20427
 866.6	20349
 867.1	20439
 867.5	20423
 868.0	20408
 868.5	20365
 868.9	20369
 869.4	20483
 869.8	20437
 870.3	20395
 870.8	20469
 871.2	20420
 871.7	20418
 872.1	20375
 872.6	20438
 873.0	20423
 873.5	20514
 874.0	20511
 874.4	20406
 874.9	20454
 875.3	20417
 875.8	20319
 876.2	20113
 876.7	19962
 877.2	19629
 877.6	19225
 878.1	18847
