#xlabel Wavelength (nm)
#ylabel Spectrometer Array Counts
#title Exposure time is 11000 ms
## lambda	counts
 349.8	18841
 350.3	19135
 350.8	19354
 351.3	19488
 351.9	19533
 352.4	19595
 352.9	19625
 353.4	19571
 354.0	19566
 354.5	19609
 355.0	19617
 355.5	19637
 356.0	19600
 356.6	19569
 357.1	19626
 357.6	19602
 358.1	19631
 358.7	19567
 359.2	19579
 359.7	19598
 360.2	19635
 360.8	19605
 361.3	19702
 361.8	19635
 362.3	19660
 362.9	19613
 363.4	19689
 363.9	19682
 364.4	19715
 364.9	19610
 365.5	19683
 366.0	19662
 366.5	19615
 367.0	19655
 367.6	19679
 368.1	19675
 368.6	19606
 369.1	19669
 369.7	19715
 370.2	19624
 370.7	19625
 371.2	19668
 371.8	19715
 372.3	19628
 372.8	19713
 373.3	19722
 373.9	19651
 374.4	19668
 374.9	19713
 375.5	19593
 376.0	19718
 376.5	19679
 377.0	19701
 377.6	19641
 378.1	19715
 378.6	19639
 379.1	19633
 379.7	19610
 380.2	19682
 380.7	19671
 381.2	19625
 381.8	19610
 382.3	19647
 382.8	19629
 383.4	19673
 383.9	19613
 384.4	19771
 384.9	19670
 385.5	19679
 386.0	19681
 386.5	19752
 387.1	19670
 387.6	19693
 388.1	19689
 388.6	19703
 389.2	19683
 389.7	19703
 390.2	19676
 390.8	19760
 391.3	19718
 391.8	19705
 392.3	19679
 392.9	19670
 393.4	19651
 393.9	19715
 394.5	19707
 395.0	19645
 395.5	19666
 396.0	19657
 396.6	19618
 397.1	19713
 397.6	19704
 398.2	19702
 398.7	19700
 399.2	19793
 399.8	19659
 400.3	19727
 400.8	19773
 401.3	19737
 401.9	19749
 402.4	19766
 402.9	19745
 403.5	19765
 404.0	19747
 404.5	19690
 405.1	19683
 405.6	19780
 406.1	19743
 406.7	19738
 407.2	19740
 407.7	19815
 408.2	19802
 408.8	19794
 409.3	19822
 409.8	19857
 410.4	19809
 410.9	19803
 411.4	19741
 412.0	19799
 412.5	19853
 413.0	19784
 413.6	19827
 414.1	19782
 414.6	19802
 415.2	19840
 415.7	19770
 416.2	19813
 416.8	19792
 417.3	19772
 417.8	19785
 418.4	19867
 418.9	19793
 419.4	19927
 420.0	19801
 420.5	19863
 421.0	19786
 421.5	19873
 422.1	19846
 422.6	19891
 423.1	19921
 423.7	19873
 424.2	19851
 424.7	19884
 425.3	19859
 425.8	19869
 426.3	19849
 426.9	19904
 427.4	19844
 427.9	19951
 428.5	19881
 429.0	19914
 429.6	19859
 430.1	19935
 430.6	19917
 431.2	19838
 431.7	19933
 432.2	19885
 432.8	19847
 433.3	19952
 433.8	19937
 434.4	19899
 434.9	19899
 435.4	19937
 436.0	19903
 436.5	19887
 437.0	19963
 437.6	19924
 438.1	19973
 438.6	19971
 439.2	19993
 439.7	19982
 440.2	19919
 440.8	19948
 441.3	19946
 441.8	19949
 442.4	19915
 442.9	19945
 443.5	19980
 444.0	19975
 444.5	19995
 445.1	19903
 445.6	19937
 446.1	19950
 446.7	19965
 447.2	19976
 447.7	19954
 448.3	20011
 448.8	19962
 449.3	19990
 449.9	19919
 450.4	20002
 450.9	20033
 451.5	20021
 452.0	19971
 452.6	19975
 453.1	20019
 453.6	20018
 454.2	19886
 454.7	19952
 455.2	19960
 455.8	20005
 456.3	19932
 456.8	20062
 457.4	19970
 457.9	19975
 458.5	20017
 459.0	19975
 459.5	20011
 460.1	19961
 460.6	20014
 461.1	19995
 461.7	20042
 462.2	19992
 462.7	20032
 463.3	19954
 463.8	20030
 464.4	20092
 464.9	20024
 465.4	20091
 466.0	19978
 466.5	20055
 467.0	19973
 467.6	20039
 468.1	20123
 468.7	20043
 469.2	19959
 469.7	20049
 470.3	20015
 470.8	20050
 471.3	20013
 471.9	19961
 472.4	20009
 473.0	20047
 473.5	20052
 474.0	20038
 474.6	20037
 475.1	20017
 475.6	20084
 476.2	20090
 476.7	20057
 477.3	20118
 477.8	20042
 478.3	19963
 478.9	20166
 479.4	20044
 479.9	20049
 480.5	20023
 481.0	20043
 481.6	20061
 482.1	20111
 482.6	20091
 483.2	20084
 483.7	20197
 484.2	20123
 484.8	19935
 485.3	20035
 485.9	20106
 486.4	20061
 486.9	20073
 487.5	20022
 488.0	20025
 488.6	20081
 489.1	20077
 489.6	20133
 490.2	20125
 490.7	20075
 491.2	20041
 491.8	20090
 492.3	20038
 492.9	20088
 493.4	20097
 493.9	20118
 494.5	20119
 495.0	20183
 495.6	20100
 496.1	20113
 496.6	20177
 497.2	20086
 497.7	20055
 498.2	20149
 498.8	20175
 499.3	20082
 499.9	20137
 500.4	20133
 500.9	20108
 501.5	20097
 502.0	20158
 502.6	20130
 503.1	20214
 503.6	20167
 504.2	20103
 504.7	20103
 505.2	20155
 505.8	20137
 506.3	20207
 506.9	20197
 507.4	20150
 507.9	20110
 508.5	20122
 509.0	20151
 509.6	20211
 510.1	20164
 510.6	20197
 511.2	20204
 511.7	20171
 512.2	20232
 512.8	20242
 513.3	20194
 513.9	20173
 514.4	20232
 514.9	20299
 515.5	20191
 516.0	20270
 516.6	20237
 517.1	20295
 517.6	20275
 518.2	20249
 518.7	20187
 519.3	20248
 519.8	20300
 520.3	20305
 520.9	20258
 521.4	20272
 521.9	20336
 522.5	20254
 523.0	20289
 523.6	20329
 524.1	20175
 524.6	20231
 525.2	20256
 525.7	20289
 526.3	20205
 526.8	20299
 527.3	20239
 527.9	20255
 528.4	20234
 528.9	20290
 529.5	20292
 530.0	20267
 530.6	20314
 531.1	20307
 531.6	20202
 532.2	20321
 532.7	20260
 533.3	20288
 533.8	20407
 534.3	20427
 534.9	20411
 535.4	20341
 536.0	20401
 536.5	20437
 537.0	20382
 537.6	20398
 538.1	20435
 538.6	20453
 539.2	20378
 539.7	20382
 540.3	20482
 540.8	20439
 541.3	20387
 541.9	20417
 542.4	20412
 543.0	20475
 543.5	20433
 544.0	20413
 544.6	20462
 545.1	20471
 545.6	20513
 546.2	20494
 546.7	20396
 547.3	20464
 547.8	20443
 548.3	20493
 548.9	20408
 549.4	20413
 550.0	20379
 550.5	20447
 551.0	20501
 551.6	20443
 552.1	20466
 552.6	20465
 553.2	20442
 553.7	20412
 554.3	20458
 554.8	20530
 555.3	20371
 555.9	20444
 556.4	20399
 556.9	20491
 557.5	20523
 558.0	20465
 558.6	20439
 559.1	20516
 559.6	20487
 560.2	20478
 560.7	20474
 561.3	20441
 561.8	20413
 562.3	20528
 562.9	20510
 563.4	20533
 563.9	20515
 564.5	20521
 565.0	20506
 565.6	20524
 566.1	20519
 566.6	20524
 567.2	20507
 567.7	20615
 568.2	20514
 568.8	20525
 569.3	20494
 569.9	20567
 570.4	20557
 570.9	20523
 571.5	20513
 572.0	20502
 572.5	20555
 573.1	20504
 573.6	20555
 574.1	20539
 574.7	20528
 575.2	20495
 575.8	20532
 576.3	20603
 576.8	20561
 577.4	20565
 577.9	20573
 578.4	20523
 579.0	20526
 579.5	20629
 580.1	20541
 580.6	20542
 581.1	20617
 581.7	20625
 582.2	20555
 582.7	20600
 583.3	20635
 583.8	20598
 584.3	20540
 584.9	20600
 585.4	20592
 586.0	20557
 586.5	20586
 587.0	20543
 587.6	20619
 588.1	20566
 588.6	20637
 589.2	20573
 589.7	20589
 590.2	20581
 590.8	20579
 591.3	20607
 591.9	20551
 592.4	20615
 592.9	20545
 593.5	20545
 594.0	20546
 594.5	20564
 595.1	20555
 595.6	20539
 596.1	20604
 596.7	20573
 597.2	20615
 597.7	20558
 598.3	20570
 598.8	20542
 599.3	20567
 599.9	20547
 600.4	20543
 601.0	20551
 601.5	20543
 602.0	20538
 602.6	20487
 603.1	20507
 603.6	20499
 604.2	20607
 604.7	20510
 605.2	20583
 605.8	20485
 606.3	20511
 606.8	20582
 607.4	20549
 607.9	20576
 608.4	20517
 609.0	20549
 609.5	20596
 610.0	20562
 610.6	20656
 611.1	20555
 611.6	20579
 612.2	20571
 612.7	20623
 613.2	20607
 613.8	20521
 614.3	20549
 614.8	20601
 615.4	20517
 615.9	20591
 616.4	20639
 617.0	20579
 617.5	20668
 618.0	20668
 618.6	20574
 619.1	20597
 619.6	20664
 620.2	20641
 620.7	20687
 621.2	20641
 621.8	20666
 622.3	20683
 622.8	20632
 623.4	20658
 623.9	20707
 624.4	20675
 625.0	20674
 625.5	20671
 626.0	20683
 626.6	20725
 627.1	20723
 627.6	20675
 628.2	20639
 628.7	20670
 629.2	20656
 629.8	20691
 630.3	20712
 630.8	20697
 631.4	20684
 631.9	20717
 632.4	20617
 632.9	20651
 633.5	20652
 634.0	20619
 634.5	20718
 635.1	20655
 635.6	20639
 636.1	20626
 636.7	20697
 637.2	20697
 637.7	20602
 638.3	20719
 638.8	20717
 639.3	20737
 639.8	20693
 640.4	20714
 640.9	20739
 641.4	20646
 642.0	20646
 642.5	20672
 643.0	20640
 643.6	20730
 644.1	20690
 644.6	20705
 645.1	20744
 645.7	20722
 646.2	20684
 646.7	20697
 647.3	20729
 647.8	20733
 648.3	20707
 648.9	20737
 649.4	20643
 649.9	20711
 650.4	20716
 651.0	20751
 651.5	20769
 652.0	20814
 652.6	20747
 653.1	20823
 653.6	20722
 654.1	20806
 654.7	20746
 655.2	20820
 655.7	20854
 656.3	20868
 656.8	20799
 657.3	20843
 657.8	20789
 658.4	20770
 658.9	20772
 659.4	20861
 659.9	20847
 660.5	20820
 661.0	20867
 661.5	20908
 662.1	20858
 662.6	20873
 663.1	20829
 663.6	20907
 664.2	20859
 664.7	20830
 665.2	20750
 665.7	20881
 666.3	20849
 666.8	20865
 667.3	20870
 667.8	20823
 668.4	20861
 668.9	20866
 669.4	20859
 669.9	20892
 670.5	20830
 671.0	20851
 671.5	20803
 672.0	20874
 672.6	20885
 673.1	20911
 673.6	20830
 674.1	20867
 674.7	20859
 675.2	20918
 675.7	20772
 676.2	20792
 676.8	20847
 677.3	20871
 677.8	20798
 678.3	20921
 678.9	20855
 679.4	20805
 679.9	20875
 680.4	20883
 681.0	20843
 681.5	20897
 682.0	20869
 682.5	20895
 683.1	20810
 683.6	20869
 684.1	20813
 684.6	20925
 685.1	20854
 685.7	20889
 686.2	20854
 686.7	20820
 687.2	20808
 687.8	20893
 688.3	20828
 688.8	20859
 689.3	20799
 689.8	20831
 690.4	20832
 690.9	20835
 691.4	20831
 691.9	20870
 692.4	20821
 693.0	20894
 693.5	20862
 694.0	20845
 694.5	20841
 695.1	20813
 695.6	20782
 696.1	20857
 696.6	20842
 697.1	20859
 697.7	20893
 698.2	20822
 698.7	20846
 699.2	20803
 699.7	20813
 700.3	20801
 700.8	20779
 701.3	20900
 701.8	20860
 702.3	20805
 702.8	20816
 703.4	20783
 703.9	20805
 704.4	20808
 704.9	20772
 705.4	20788
 706.0	20895
 706.5	20886
 707.0	20792
 707.5	20791
 708.0	20829
 708.5	20779
 709.1	20866
 709.6	20823
 710.1	20797
 710.6	20774
 711.1	20781
 711.7	20814
 712.2	20818
 712.7	20830
 713.2	20809
 713.7	20817
 714.2	20775
 714.8	20863
 715.3	20811
 715.8	20815
 716.3	20826
 716.8	20723
 717.3	20715
 717.8	20830
 718.4	20837
 718.9	20778
 719.4	20863
 719.9	20765
 720.4	20814
 720.9	20826
 721.4	20824
 722.0	20843
 722.5	20822
 723.0	20809
 723.5	20815
 724.0	20781
 724.5	20779
 725.0	20787
 725.6	20719
 726.1	20776
 726.6	20903
 727.1	20836
 727.6	20879
 728.1	20894
 728.6	20845
 729.1	20833
 729.7	20821
 730.2	20851
 730.7	20890
 731.2	20916
 731.7	20911
 732.2	20920
 732.7	20901
 733.2	20949
 733.8	20923
 734.3	20938
 734.8	20897
 735.3	20922
 735.8	20909
 736.3	20871
 736.8	20909
 737.3	20947
 737.8	20890
 738.4	20887
 738.9	20828
 739.4	20916
 739.9	20907
 740.4	20910
 740.9	20903
 741.4	20899
 741.9	20891
 742.4	20916
 742.9	20898
 743.4	20992
 744.0	20915
 744.5	20913
 745.0	20931
 745.5	21022
 746.0	20996
 746.5	21001
 747.0	20946
 747.5	20934
 748.0	20909
 748.5	20931
 749.0	20953
 749.5	21049
 750.0	20883
 750.5	20956
 751.1	20974
 751.6	20975
 752.1	20974
 752.6	20947
 753.1	20978
 753.6	20916
 754.1	20886
 754.6	20945
 755.1	20907
 755.6	20926
 756.1	20844
 756.6	20963
 757.1	20932
 757.6	20922
 758.1	20893
 758.6	20919
 759.1	20849
 759.6	20898
 760.1	20853
 760.7	20824
 761.2	20908
 761.7	20852
 762.2	20846
 762.7	20914
 763.2	20765
 763.7	20869
 764.2	20808
 764.7	20820
 765.2	20862
 765.7	20842
 766.2	20806
 766.7	20868
 767.2	20822
 767.7	20842
 768.2	20828
 768.7	20799
 769.2	20798
 769.7	20858
 770.2	20831
 770.7	20834
 771.2	20821
 771.7	20796
 772.2	20821
 772.7	20875
 773.2	20859
 773.7	20808
 774.2	20765
 774.7	20819
 775.2	20817
 775.7	20797
 776.2	20796
 776.7	20825
 777.2	20751
 777.7	20835
 778.2	20822
 778.7	20866
 779.2	20884
 779.7	20914
 780.2	20751
 780.7	20827
 781.2	20833
 781.7	20913
 782.2	20829
 782.6	20915
 783.1	20923
 783.6	20886
 784.1	20858
 784.6	20848
 785.1	20861
 785.6	20853
 786.1	20889
 786.6	20911
 787.1	20852
 787.6	20860
 788.1	20852
 788.6	20845
 789.1	20847
 789.6	20891
 790.1	20913
 790.6	20911
 791.1	20814
 791.6	20831
 792.0	20861
 792.5	20899
 793.0	20886
 793.5	20889
 794.0	20825
 794.5	20930
 795.0	20915
 795.5	20887
 796.0	20911
 796.5	20862
 797.0	20893
 797.5	20942
 798.0	20797
 798.4	20852
 798.9	20841
 799.4	20870
 799.9	20883
 800.4	20754
 800.9	20861
 801.4	20943
 801.9	20909
 802.4	20839
 802.9	20923
 803.3	20924
 803.8	20899
 804.3	20850
 804.8	20926
 805.3	20880
 805.8	20879
 806.3	20885
 806.8	20874
 807.2	20878
 807.7	20852
 808.2	20893
 808.7	20813
 809.2	20831
 809.7	20774
 810.2	20851
 810.7	20795
 811.1	20820
 811.6	20827
 812.1	20789
 812.6	20753
 813.1	20807
 813.6	20834
 814.1	20817
 814.5	20783
 815.0	20813
 815.5	20777
 816.0	20737
 816.5	20815
 817.0	20765
 817.4	20754
 817.9	20795
 818.4	20730
 818.9	20821
 819.4	20781
 819.9	20760
 820.3	20734
 820.8	20744
 821.3	20755
 821.8	20781
 822.3	20717
 822.7	20702
 823.2	20771
 823.7	20725
 824.2	20733
 824.7	20715
 825.2	20737
 825.6	20719
 826.1	20713
 826.6	20776
 827.1	20763
 827.6	20757
 828.0	20695
 828.5	20668
 829.0	20713
 829.5	20660
 829.9	20671
 830.4	20739
 830.9	20718
 831.4	20753
 831.9	20701
 832.3	20797
 832.8	20736
 833.3	20731
 833.8	20822
 834.2	20817
 834.7	20655
 835.2	20759
 835.7	20758
 836.1	20759
 836.6	20741
 837.1	20746
 837.6	20759
 838.0	20803
 838.5	20825
 839.0	20831
 839.5	20821
 839.9	20741
 840.4	20750
 840.9	20714
 841.4	20757
 841.8	20787
 842.3	20804
 842.8	20825
 843.3	20831
 843.7	20724
 844.2	20714
 844.7	20809
 845.1	20782
 845.6	20697
 846.1	20727
 846.6	20758
 847.0	20659
 847.5	20711
 848.0	20700
 848.4	20746
 848.9	20713
 849.4	20700
 849.8	20723
 850.3	20721
 850.8	20775
 851.3	20742
 851.7	20740
 852.2	20747
 852.7	20739
 853.1	20715
 853.6	20671
 854.1	20714
 854.5	20678
 855.0	20677
 855.5	20671
 855.9	20736
 856.4	20733
 856.9	20639
 857.3	20707
 857.8	20679
 858.3	20732
 858.7	20681
 859.2	20702
 859.7	20691
 860.1	20750
 860.6	20731
 861.1	20673
 861.5	20724
 862.0	20730
 862.4	20708
 862.9	20671
 863.4	20712
 863.8	20716
 864.3	20721
 864.8	20638
 865.2	20691
 865.7	20712
 866.1	20732
 866.6	20653
 867.1	20733
 867.5	20724
 868.0	20700
 868.5	20656
 868.9	20665
 869.4	20778
 869.8	20724
 870.3	20682
 870.8	20755
 871.2	20701
 871.7	20687
 872.1	20633
 872.6	20687
 873.0	20657
 873.5	20737
 874.0	20724
 874.4	20616
 874.9	20680
 875.3	20686
 875.8	20663
 876.2	20555
 876.7	20515
 877.2	20258
 877.6	19845
 878.1	19325
