#xlabel Wavelength (nm)
#ylabel Spectrometer Array Counts
#title Exposure time is 11000 ms
## lambda	counts
 349.8	18523
 350.3	18779
 350.8	19032
 351.3	19234
 351.9	19354
 352.4	19485
 352.9	19569
 353.4	19540
 354.0	19555
 354.5	19604
 355.0	19615
 355.5	19630
 356.0	19588
 356.6	19553
 357.1	19602
 357.6	19578
 358.1	19599
 358.7	19528
 359.2	19546
 359.7	19562
 360.2	19601
 360.8	19566
 361.3	19659
 361.8	19598
 362.3	19627
 362.9	19577
 363.4	19651
 363.9	19649
 364.4	19679
 364.9	19573
 365.5	19647
 366.0	19630
 366.5	19578
 367.0	19620
 367.6	19653
 368.1	19644
 368.6	19568
 369.1	19627
 369.7	19673
 370.2	19589
 370.7	19589
 371.2	19627
 371.8	19681
 372.3	19590
 372.8	19669
 373.3	19682
 373.9	19614
 374.4	19631
 374.9	19679
 375.5	19557
 376.0	19685
 376.5	19638
 377.0	19658
 377.6	19599
 378.1	19676
 378.6	19596
 379.1	19599
 379.7	19575
 380.2	19644
 380.7	19641
 381.2	19589
 381.8	19574
 382.3	19613
 382.8	19590
 383.4	19635
 383.9	19572
 384.4	19732
 384.9	19631
 385.5	19641
 386.0	19643
 386.5	19717
 387.1	19635
 387.6	19655
 388.1	19652
 388.6	19664
 389.2	19642
 389.7	19663
 390.2	19631
 390.8	19717
 391.3	19679
 391.8	19671
 392.3	19641
 392.9	19627
 393.4	19613
 393.9	19678
 394.5	19671
 395.0	19611
 395.5	19627
 396.0	19624
 396.6	19577
 397.1	19673
 397.6	19667
 398.2	19663
 398.7	19663
 399.2	19754
 399.8	19615
 400.3	19690
 400.8	19732
 401.3	19694
 401.9	19711
 402.4	19727
 402.9	19705
 403.5	19727
 404.0	19713
 404.5	19651
 405.1	19650
 405.6	19747
 406.1	19709
 406.7	19703
 407.2	19704
 407.7	19775
 408.2	19768
 408.8	19753
 409.3	19782
 409.8	19819
 410.4	19768
 410.9	19761
 411.4	19699
 412.0	19763
 412.5	19809
 413.0	19747
 413.6	19789
 414.1	19735
 414.6	19763
 415.2	19802
 415.7	19731
 416.2	19777
 416.8	19755
 417.3	19733
 417.8	19743
 418.4	19825
 418.9	19752
 419.4	19891
 420.0	19763
 420.5	19816
 421.0	19752
 421.5	19837
 422.1	19804
 422.6	19851
 423.1	19875
 423.7	19835
 424.2	19816
 424.7	19847
 425.3	19823
 425.8	19837
 426.3	19814
 426.9	19870
 427.4	19804
 427.9	19915
 428.5	19838
 429.0	19874
 429.6	19815
 430.1	19893
 430.6	19882
 431.2	19801
 431.7	19895
 432.2	19849
 432.8	19808
 433.3	19908
 433.8	19902
 434.4	19856
 434.9	19865
 435.4	19898
 436.0	19870
 436.5	19851
 437.0	19926
 437.6	19889
 438.1	19933
 438.6	19934
 439.2	19955
 439.7	19941
 440.2	19878
 440.8	19908
 441.3	19907
 441.8	19912
 442.4	19877
 442.9	19904
 443.5	19943
 444.0	19930
 444.5	19960
 445.1	19861
 445.6	19893
 446.1	19914
 446.7	19923
 447.2	19932
 447.7	19908
 448.3	19976
 448.8	19922
 449.3	19952
 449.9	19876
 450.4	19966
 450.9	19992
 451.5	19977
 452.0	19933
 452.6	19938
 453.1	19979
 453.6	19983
 454.2	19854
 454.7	19916
 455.2	19930
 455.8	19966
 456.3	19900
 456.8	20020
 457.4	19933
 457.9	19935
 458.5	19983
 459.0	19939
 459.5	19972
 460.1	19921
 460.6	19968
 461.1	19952
 461.7	20004
 462.2	19947
 462.7	19993
 463.3	19913
 463.8	19987
 464.4	20055
 464.9	19989
 465.4	20050
 466.0	19947
 466.5	20012
 467.0	19937
 467.6	20003
 468.1	20081
 468.7	20003
 469.2	19921
 469.7	20010
 470.3	19977
 470.8	20015
 471.3	19980
 471.9	19925
 472.4	19974
 473.0	20005
 473.5	20015
 474.0	19996
 474.6	19997
 475.1	19979
 475.6	20045
 476.2	20050
 476.7	20019
 477.3	20069
 477.8	20006
 478.3	19921
 478.9	20132
 479.4	20004
 479.9	20008
 480.5	19987
 481.0	20006
 481.6	20018
 482.1	20072
 482.6	20045
 483.2	20044
 483.7	20162
 484.2	20080
 484.8	19901
 485.3	19999
 485.9	20074
 486.4	20027
 486.9	20033
 487.5	19987
 488.0	19987
 488.6	20043
 489.1	20037
 489.6	20090
 490.2	20086
 490.7	20037
 491.2	19999
 491.8	20058
 492.3	20003
 492.9	20052
 493.4	20062
 493.9	20074
 494.5	20077
 495.0	20145
 495.6	20059
 496.1	20071
 496.6	20135
 497.2	20046
 497.7	20012
 498.2	20109
 498.8	20133
 499.3	20043
 499.9	20101
 500.4	20094
 500.9	20071
 501.5	20053
 502.0	20115
 502.6	20093
 503.1	20171
 503.6	20130
 504.2	20069
 504.7	20061
 505.2	20118
 505.8	20094
 506.3	20169
 506.9	20159
 507.4	20107
 507.9	20075
 508.5	20089
 509.0	20121
 509.6	20173
 510.1	20126
 510.6	20155
 511.2	20168
 511.7	20136
 512.2	20191
 512.8	20203
 513.3	20157
 513.9	20135
 514.4	20193
 514.9	20261
 515.5	20154
 516.0	20233
 516.6	20199
 517.1	20255
 517.6	20233
 518.2	20214
 518.7	20153
 519.3	20211
 519.8	20268
 520.3	20263
 520.9	20219
 521.4	20229
 521.9	20295
 522.5	20212
 523.0	20248
 523.6	20291
 524.1	20136
 524.6	20193
 525.2	20225
 525.7	20257
 526.3	20167
 526.8	20264
 527.3	20205
 527.9	20217
 528.4	20195
 528.9	20251
 529.5	20257
 530.0	20236
 530.6	20277
 531.1	20271
 531.6	20166
 532.2	20282
 532.7	20230
 533.3	20248
 533.8	20368
 534.3	20388
 534.9	20372
 535.4	20301
 536.0	20362
 536.5	20396
 537.0	20349
 537.6	20359
 538.1	20403
 538.6	20416
 539.2	20343
 539.7	20347
 540.3	20445
 540.8	20402
 541.3	20347
 541.9	20380
 542.4	20379
 543.0	20440
 543.5	20401
 544.0	20373
 544.6	20433
 545.1	20431
 545.6	20475
 546.2	20456
 546.7	20362
 547.3	20424
 547.8	20402
 548.3	20457
 548.9	20371
 549.4	20376
 550.0	20341
 550.5	20411
 551.0	20461
 551.6	20405
 552.1	20428
 552.6	20425
 553.2	20405
 553.7	20375
 554.3	20422
 554.8	20491
 555.3	20339
 555.9	20409
 556.4	20360
 556.9	20455
 557.5	20479
 558.0	20428
 558.6	20403
 559.1	20470
 559.6	20450
 560.2	20443
 560.7	20434
 561.3	20401
 561.8	20373
 562.3	20495
 562.9	20467
 563.4	20493
 563.9	20481
 564.5	20481
 565.0	20465
 565.6	20483
 566.1	20485
 566.6	20487
 567.2	20470
 567.7	20576
 568.2	20475
 568.8	20488
 569.3	20455
 569.9	20534
 570.4	20519
 570.9	20486
 571.5	20475
 572.0	20461
 572.5	20518
 573.1	20463
 573.6	20511
 574.1	20503
 574.7	20492
 575.2	20462
 575.8	20498
 576.3	20561
 576.8	20522
 577.4	20530
 577.9	20543
 578.4	20487
 579.0	20490
 579.5	20591
 580.1	20506
 580.6	20507
 581.1	20576
 581.7	20587
 582.2	20517
 582.7	20557
 583.3	20594
 583.8	20559
 584.3	20505
 584.9	20560
 585.4	20551
 586.0	20519
 586.5	20551
 587.0	20505
 587.6	20583
 588.1	20524
 588.6	20598
 589.2	20539
 589.7	20557
 590.2	20541
 590.8	20540
 591.3	20566
 591.9	20513
 592.4	20578
 592.9	20518
 593.5	20510
 594.0	20508
 594.5	20527
 595.1	20516
 595.6	20502
 596.1	20559
 596.7	20531
 597.2	20578
 597.7	20516
 598.3	20530
 598.8	20508
 599.3	20527
 599.9	20507
 600.4	20503
 601.0	20515
 601.5	20506
 602.0	20499
 602.6	20447
 603.1	20469
 603.6	20462
 604.2	20571
 604.7	20469
 605.2	20543
 605.8	20446
 606.3	20477
 606.8	20542
 607.4	20511
 607.9	20540
 608.4	20477
 609.0	20511
 609.5	20555
 610.0	20522
 610.6	20620
 611.1	20520
 611.6	20540
 612.2	20534
 612.7	20588
 613.2	20572
 613.8	20487
 614.3	20511
 614.8	20563
 615.4	20472
 615.9	20554
 616.4	20600
 617.0	20538
 617.5	20630
 618.0	20628
 618.6	20541
 619.1	20558
 619.6	20626
 620.2	20605
 620.7	20651
 621.2	20603
 621.8	20630
 622.3	20646
 622.8	20591
 623.4	20618
 623.9	20674
 624.4	20639
 625.0	20633
 625.5	20636
 626.0	20641
 626.6	20690
 627.1	20683
 627.6	20631
 628.2	20602
 628.7	20635
 629.2	20621
 629.8	20653
 630.3	20671
 630.8	20658
 631.4	20651
 631.9	20682
 632.4	20574
 632.9	20609
 633.5	20619
 634.0	20581
 634.5	20683
 635.1	20618
 635.6	20599
 636.1	20587
 636.7	20655
 637.2	20659
 637.7	20562
 638.3	20682
 638.8	20679
 639.3	20699
 639.8	20655
 640.4	20674
 640.9	20701
 641.4	20612
 642.0	20610
 642.5	20637
 643.0	20605
 643.6	20693
 644.1	20655
 644.6	20662
 645.1	20704
 645.7	20681
 646.2	20645
 646.7	20662
 647.3	20690
 647.8	20690
 648.3	20669
 648.9	20697
 649.4	20607
 649.9	20677
 650.4	20681
 651.0	20722
 651.5	20727
 652.0	20772
 652.6	20711
 653.1	20789
 653.6	20682
 654.1	20765
 654.7	20710
 655.2	20785
 655.7	20821
 656.3	20829
 656.8	20761
 657.3	20809
 657.8	20758
 658.4	20737
 658.9	20739
 659.4	20827
 659.9	20807
 660.5	20773
 661.0	20831
 661.5	20869
 662.1	20821
 662.6	20833
 663.1	20786
 663.6	20869
 664.2	20827
 664.7	20793
 665.2	20717
 665.7	20846
 666.3	20815
 666.8	20821
 667.3	20832
 667.8	20791
 668.4	20827
 668.9	20828
 669.4	20817
 669.9	20861
 670.5	20789
 671.0	20814
 671.5	20764
 672.0	20835
 672.6	20843
 673.1	20873
 673.6	20789
 674.1	20830
 674.7	20822
 675.2	20880
 675.7	20734
 676.2	20755
 676.8	20812
 677.3	20841
 677.8	20759
 678.3	20884
 678.9	20817
 679.4	20771
 679.9	20834
 680.4	20850
 681.0	20809
 681.5	20856
 682.0	20830
 682.5	20858
 683.1	20771
 683.6	20831
 684.1	20773
 684.6	20880
 685.1	20819
 685.7	20848
 686.2	20819
 686.7	20779
 687.2	20770
 687.8	20851
 688.3	20788
 688.8	20823
 689.3	20758
 689.8	20795
 690.4	20791
 690.9	20799
 691.4	20795
 691.9	20831
 692.4	20783
 693.0	20862
 693.5	20826
 694.0	20807
 694.5	20803
 695.1	20783
 695.6	20748
 696.1	20825
 696.6	20801
 697.1	20819
 697.7	20852
 698.2	20787
 698.7	20807
 699.2	20770
 699.7	20776
 700.3	20762
 700.8	20743
 701.3	20861
 701.8	20819
 702.3	20765
 702.8	20776
 703.4	20744
 703.9	20769
 704.4	20765
 704.9	20735
 705.4	20744
 706.0	20849
 706.5	20845
 707.0	20757
 707.5	20749
 708.0	20787
 708.5	20741
 709.1	20821
 709.6	20783
 710.1	20761
 710.6	20733
 711.1	20743
 711.7	20775
 712.2	20782
 712.7	20790
 713.2	20772
 713.7	20775
 714.2	20739
 714.8	20831
 715.3	20769
 715.8	20773
 716.3	20792
 716.8	20696
 717.3	20679
 717.8	20799
 718.4	20804
 718.9	20741
 719.4	20828
 719.9	20727
 720.4	20775
 720.9	20788
 721.4	20784
 722.0	20804
 722.5	20786
 723.0	20779
 723.5	20781
 724.0	20745
 724.5	20739
 725.0	20757
 725.6	20687
 726.1	20737
 726.6	20863
 727.1	20796
 727.6	20839
 728.1	20855
 728.6	20814
 729.1	20805
 729.7	20791
 730.2	20815
 730.7	20851
 731.2	20879
 731.7	20867
 732.2	20879
 732.7	20861
 733.2	20909
 733.8	20887
 734.3	20895
 734.8	20863
 735.3	20887
 735.8	20871
 736.3	20836
 736.8	20873
 737.3	20907
 737.8	20855
 738.4	20849
 738.9	20793
 739.4	20887
 739.9	20875
 740.4	20874
 740.9	20867
 741.4	20866
 741.9	20855
 742.4	20877
 742.9	20862
 743.4	20957
 744.0	20875
 744.5	20877
 745.0	20895
 745.5	20983
 746.0	20957
 746.5	20963
 747.0	20908
 747.5	20899
 748.0	20874
 748.5	20896
 749.0	20917
 749.5	21013
 750.0	20849
 750.5	20918
 751.1	20930
 751.6	20936
 752.1	20940
 752.6	20905
 753.1	20939
 753.6	20879
 754.1	20849
 754.6	20907
 755.1	20871
 755.6	20887
 756.1	20809
 756.6	20924
 757.1	20891
 757.6	20885
 758.1	20858
 758.6	20883
 759.1	20810
 759.6	20863
 760.1	20817
 760.7	20788
 761.2	20875
 761.7	20820
 762.2	20816
 762.7	20873
 763.2	20725
 763.7	20831
 764.2	20772
 764.7	20781
 765.2	20827
 765.7	20807
 766.2	20770
 766.7	20826
 767.2	20780
 767.7	20803
 768.2	20790
 768.7	20760
 769.2	20766
 769.7	20824
 770.2	20794
 770.7	20798
 771.2	20786
 771.7	20764
 772.2	20775
 772.7	20835
 773.2	20827
 773.7	20775
 774.2	20727
 774.7	20786
 775.2	20775
 775.7	20757
 776.2	20755
 776.7	20788
 777.2	20711
 777.7	20801
 778.2	20787
 778.7	20827
 779.2	20841
 779.7	20878
 780.2	20718
 780.7	20789
 781.2	20798
 781.7	20878
 782.2	20795
 782.6	20879
 783.1	20886
 783.6	20852
 784.1	20819
 784.6	20811
 785.1	20825
 785.6	20819
 786.1	20857
 786.6	20876
 787.1	20819
 787.6	20829
 788.1	20818
 788.6	20806
 789.1	20809
 789.6	20853
 790.1	20873
 790.6	20875
 791.1	20784
 791.6	20790
 792.0	20820
 792.5	20863
 793.0	20850
 793.5	20851
 794.0	20789
 794.5	20891
 795.0	20881
 795.5	20849
 796.0	20870
 796.5	20829
 797.0	20859
 797.5	20908
 798.0	20763
 798.4	20815
 798.9	20808
 799.4	20833
 799.9	20853
 800.4	20717
 800.9	20827
 801.4	20903
 801.9	20873
 802.4	20804
 802.9	20880
 803.3	20885
 803.8	20859
 804.3	20810
 804.8	20888
 805.3	20842
 805.8	20844
 806.3	20851
 806.8	20843
 807.2	20847
 807.7	20820
 808.2	20850
 808.7	20778
 809.2	20797
 809.7	20740
 810.2	20814
 810.7	20754
 811.1	20783
 811.6	20787
 812.1	20753
 812.6	20719
 813.1	20771
 813.6	20801
 814.1	20779
 814.5	20744
 815.0	20771
 815.5	20739
 816.0	20700
 816.5	20775
 817.0	20729
 817.4	20717
 817.9	20760
 818.4	20691
 818.9	20787
 819.4	20743
 819.9	20730
 820.3	20699
 820.8	20706
 821.3	20718
 821.8	20746
 822.3	20681
 822.7	20663
 823.2	20734
 823.7	20689
 824.2	20693
 824.7	20681
 825.2	20702
 825.6	20679
 826.1	20674
 826.6	20731
 827.1	20721
 827.6	20720
 828.0	20659
 828.5	20631
 829.0	20684
 829.5	20625
 829.9	20635
 830.4	20701
 830.9	20683
 831.4	20718
 831.9	20669
 832.3	20757
 832.8	20696
 833.3	20695
 833.8	20782
 834.2	20779
 834.7	20621
 835.2	20722
 835.7	20722
 836.1	20722
 836.6	20714
 837.1	20713
 837.6	20723
 838.0	20764
 838.5	20792
 839.0	20790
 839.5	20784
 839.9	20699
 840.4	20716
 840.9	20676
 841.4	20724
 841.8	20752
 842.3	20765
 842.8	20786
 843.3	20797
 843.7	20688
 844.2	20678
 844.7	20773
 845.1	20742
 845.6	20665
 846.1	20692
 846.6	20720
 847.0	20620
 847.5	20679
 848.0	20665
 848.4	20709
 848.9	20674
 849.4	20662
 849.8	20689
 850.3	20686
 850.8	20740
 851.3	20699
 851.7	20699
 852.2	20709
 852.7	20702
 853.1	20680
 853.6	20635
 854.1	20679
 854.5	20643
 855.0	20640
 855.5	20635
 855.9	20701
 856.4	20693
 856.9	20605
 857.3	20669
 857.8	20645
 858.3	20689
 858.7	20651
 859.2	20664
 859.7	20663
 860.1	20713
 860.6	20694
 861.1	20636
 861.5	20685
 862.0	20695
 862.4	20672
 862.9	20634
 863.4	20677
 863.8	20682
 864.3	20685
 864.8	20602
 865.2	20656
 865.7	20681
 866.1	20697
 866.6	20617
 867.1	20702
 867.5	20683
 868.0	20663
 868.5	20622
 868.9	20631
 869.4	20739
 869.8	20691
 870.3	20648
 870.8	20727
 871.2	20681
 871.7	20671
 872.1	20626
 872.6	20678
 873.0	20665
 873.5	20748
 874.0	20737
 874.4	20616
 874.9	20653
 875.3	20607
 875.8	20501
 876.2	20291
 876.7	20141
 877.2	19815
 877.6	19428
 878.1	19071
