#xlabel Wavelength (nm)
#ylabel Spectrometer Array Counts
#title Exposure time is 11000 ms
## lambda	counts
 349.8	18585
 350.3	18878
 350.8	19156
 351.3	19365
 351.9	19477
 352.4	19590
 352.9	19656
 353.4	19608
 354.0	19604
 354.5	19634
 355.0	19635
 355.5	19643
 356.0	19595
 356.6	19554
 357.1	19608
 357.6	19579
 358.1	19610
 358.7	19550
 359.2	19564
 359.7	19574
 360.2	19620
 360.8	19578
 361.3	19678
 361.8	19617
 362.3	19643
 362.9	19591
 363.4	19669
 363.9	19665
 364.4	19692
 364.9	19595
 365.5	19671
 366.0	19646
 366.5	19595
 367.0	19637
 367.6	19666
 368.1	19662
 368.6	19584
 369.1	19645
 369.7	19691
 370.2	19602
 370.7	19607
 371.2	19650
 371.8	19705
 372.3	19607
 372.8	19691
 373.3	19701
 373.9	19635
 374.4	19649
 374.9	19700
 375.5	19574
 376.0	19699
 376.5	19654
 377.0	19678
 377.6	19621
 378.1	19695
 378.6	19625
 379.1	19612
 379.7	19592
 380.2	19657
 380.7	19655
 381.2	19611
 381.8	19594
 382.3	19627
 382.8	19605
 383.4	19650
 383.9	19591
 384.4	19753
 384.9	19649
 385.5	19658
 386.0	19660
 386.5	19733
 387.1	19652
 387.6	19674
 388.1	19670
 388.6	19685
 389.2	19666
 389.7	19683
 390.2	19651
 390.8	19737
 391.3	19699
 391.8	19689
 392.3	19660
 392.9	19655
 393.4	19631
 393.9	19698
 394.5	19690
 395.0	19631
 395.5	19642
 396.0	19640
 396.6	19598
 397.1	19695
 397.6	19683
 398.2	19686
 398.7	19677
 399.2	19772
 399.8	19638
 400.3	19706
 400.8	19750
 401.3	19711
 401.9	19727
 402.4	19747
 402.9	19726
 403.5	19747
 404.0	19729
 404.5	19674
 405.1	19671
 405.6	19761
 406.1	19726
 406.7	19723
 407.2	19723
 407.7	19798
 408.2	19782
 408.8	19777
 409.3	19796
 409.8	19834
 410.4	19791
 410.9	19783
 411.4	19726
 412.0	19781
 412.5	19832
 413.0	19768
 413.6	19799
 414.1	19756
 414.6	19781
 415.2	19821
 415.7	19747
 416.2	19794
 416.8	19771
 417.3	19751
 417.8	19767
 418.4	19848
 418.9	19774
 419.4	19909
 420.0	19779
 420.5	19839
 421.0	19769
 421.5	19852
 422.1	19827
 422.6	19871
 423.1	19895
 423.7	19855
 424.2	19833
 424.7	19867
 425.3	19841
 425.8	19853
 426.3	19831
 426.9	19887
 427.4	19826
 427.9	19930
 428.5	19857
 429.0	19895
 429.6	19840
 430.1	19911
 430.6	19897
 431.2	19823
 431.7	19914
 432.2	19867
 432.8	19825
 433.3	19924
 433.8	19921
 434.4	19875
 434.9	19881
 435.4	19919
 436.0	19882
 436.5	19868
 437.0	19941
 437.6	19903
 438.1	19958
 438.6	19950
 439.2	19979
 439.7	19959
 440.2	19898
 440.8	19932
 441.3	19929
 441.8	19935
 442.4	19897
 442.9	19922
 443.5	19961
 444.0	19953
 444.5	19979
 445.1	19882
 445.6	19915
 446.1	19932
 446.7	19946
 447.2	19957
 447.7	19931
 448.3	19993
 448.8	19945
 449.3	19969
 449.9	19899
 450.4	19987
 450.9	20013
 451.5	19997
 452.0	19954
 452.6	19958
 453.1	19999
 453.6	19999
 454.2	19873
 454.7	19937
 455.2	19942
 455.8	19991
 456.3	19913
 456.8	20039
 457.4	19949
 457.9	19956
 458.5	19999
 459.0	19954
 459.5	19995
 460.1	19942
 460.6	19993
 461.1	19971
 461.7	20022
 462.2	19972
 462.7	20010
 463.3	19930
 463.8	20003
 464.4	20077
 464.9	20007
 465.4	20073
 466.0	19962
 466.5	20035
 467.0	19955
 467.6	20022
 468.1	20104
 468.7	20022
 469.2	19948
 469.7	20029
 470.3	19999
 470.8	20031
 471.3	19999
 471.9	19942
 472.4	19991
 473.0	20031
 473.5	20033
 474.0	20020
 474.6	20015
 475.1	19996
 475.6	20068
 476.2	20068
 476.7	20039
 477.3	20096
 477.8	20027
 478.3	19940
 478.9	20152
 479.4	20023
 479.9	20028
 480.5	20001
 481.0	20022
 481.6	20038
 482.1	20095
 482.6	20069
 483.2	20066
 483.7	20174
 484.2	20102
 484.8	19918
 485.3	20019
 485.9	20091
 486.4	20038
 486.9	20055
 487.5	20005
 488.0	20005
 488.6	20063
 489.1	20062
 489.6	20114
 490.2	20106
 490.7	20050
 491.2	20018
 491.8	20076
 492.3	20018
 492.9	20070
 493.4	20079
 493.9	20098
 494.5	20099
 495.0	20167
 495.6	20082
 496.1	20095
 496.6	20154
 497.2	20071
 497.7	20035
 498.2	20132
 498.8	20154
 499.3	20063
 499.9	20115
 500.4	20114
 500.9	20092
 501.5	20077
 502.0	20139
 502.6	20112
 503.1	20194
 503.6	20146
 504.2	20086
 504.7	20085
 505.2	20139
 505.8	20112
 506.3	20182
 506.9	20177
 507.4	20125
 507.9	20091
 508.5	20108
 509.0	20137
 509.6	20191
 510.1	20147
 510.6	20174
 511.2	20181
 511.7	20154
 512.2	20212
 512.8	20225
 513.3	20173
 513.9	20155
 514.4	20211
 514.9	20285
 515.5	20171
 516.0	20248
 516.6	20219
 517.1	20275
 517.6	20253
 518.2	20231
 518.7	20169
 519.3	20230
 519.8	20281
 520.3	20281
 520.9	20237
 521.4	20248
 521.9	20321
 522.5	20233
 523.0	20273
 523.6	20309
 524.1	20155
 524.6	20213
 525.2	20241
 525.7	20271
 526.3	20185
 526.8	20279
 527.3	20221
 527.9	20236
 528.4	20215
 528.9	20270
 529.5	20275
 530.0	20253
 530.6	20295
 531.1	20290
 531.6	20184
 532.2	20305
 532.7	20246
 533.3	20270
 533.8	20389
 534.3	20407
 534.9	20393
 535.4	20319
 536.0	20383
 536.5	20419
 537.0	20366
 537.6	20375
 538.1	20419
 538.6	20431
 539.2	20357
 539.7	20365
 540.3	20462
 540.8	20421
 541.3	20369
 541.9	20398
 542.4	20394
 543.0	20463
 543.5	20419
 544.0	20395
 544.6	20443
 545.1	20448
 545.6	20493
 546.2	20469
 546.7	20380
 547.3	20445
 547.8	20422
 548.3	20479
 548.9	20392
 549.4	20391
 550.0	20361
 550.5	20429
 551.0	20480
 551.6	20422
 552.1	20445
 552.6	20446
 553.2	20419
 553.7	20395
 554.3	20441
 554.8	20510
 555.3	20355
 555.9	20425
 556.4	20380
 556.9	20474
 557.5	20504
 558.0	20447
 558.6	20420
 559.1	20494
 559.6	20468
 560.2	20462
 560.7	20459
 561.3	20422
 561.8	20395
 562.3	20515
 562.9	20487
 563.4	20514
 563.9	20498
 564.5	20503
 565.0	20485
 565.6	20505
 566.1	20497
 566.6	20508
 567.2	20487
 567.7	20600
 568.2	20493
 568.8	20506
 569.3	20470
 569.9	20548
 570.4	20537
 570.9	20504
 571.5	20495
 572.0	20485
 572.5	20543
 573.1	20479
 573.6	20538
 574.1	20519
 574.7	20510
 575.2	20478
 575.8	20511
 576.3	20581
 576.8	20541
 577.4	20548
 577.9	20560
 578.4	20508
 579.0	20507
 579.5	20610
 580.1	20522
 580.6	20522
 581.1	20595
 581.7	20605
 582.2	20536
 582.7	20579
 583.3	20619
 583.8	20579
 584.3	20520
 584.9	20578
 585.4	20569
 586.0	20543
 586.5	20569
 587.0	20521
 587.6	20601
 588.1	20542
 588.6	20622
 589.2	20552
 589.7	20573
 590.2	20562
 590.8	20560
 591.3	20585
 591.9	20527
 592.4	20595
 592.9	20533
 593.5	20528
 594.0	20527
 594.5	20547
 595.1	20533
 595.6	20518
 596.1	20585
 596.7	20550
 597.2	20592
 597.7	20535
 598.3	20551
 598.8	20522
 599.3	20543
 599.9	20524
 600.4	20525
 601.0	20535
 601.5	20527
 602.0	20522
 602.6	20468
 603.1	20488
 603.6	20475
 604.2	20593
 604.7	20489
 605.2	20559
 605.8	20471
 606.3	20493
 606.8	20564
 607.4	20526
 607.9	20558
 608.4	20499
 609.0	20531
 609.5	20575
 610.0	20540
 610.6	20636
 611.1	20538
 611.6	20561
 612.2	20550
 612.7	20610
 613.2	20591
 613.8	20503
 614.3	20531
 614.8	20579
 615.4	20495
 615.9	20576
 616.4	20620
 617.0	20559
 617.5	20646
 618.0	20649
 618.6	20557
 619.1	20582
 619.6	20645
 620.2	20628
 620.7	20667
 621.2	20623
 621.8	20647
 622.3	20665
 622.8	20614
 623.4	20632
 623.9	20689
 624.4	20653
 625.0	20649
 625.5	20653
 626.0	20667
 626.6	20705
 627.1	20703
 627.6	20651
 628.2	20618
 628.7	20650
 629.2	20631
 629.8	20675
 630.3	20691
 630.8	20677
 631.4	20666
 631.9	20698
 632.4	20595
 632.9	20629
 633.5	20641
 634.0	20601
 634.5	20698
 635.1	20636
 635.6	20620
 636.1	20607
 636.7	20678
 637.2	20680
 637.7	20588
 638.3	20698
 638.8	20700
 639.3	20716
 639.8	20673
 640.4	20693
 640.9	20725
 641.4	20632
 642.0	20626
 642.5	20654
 643.0	20624
 643.6	20719
 644.1	20674
 644.6	20691
 645.1	20727
 645.7	20701
 646.2	20665
 646.7	20679
 647.3	20708
 647.8	20711
 648.3	20687
 648.9	20719
 649.4	20623
 649.9	20697
 650.4	20695
 651.0	20738
 651.5	20749
 652.0	20794
 652.6	20729
 653.1	20803
 653.6	20703
 654.1	20781
 654.7	20727
 655.2	20800
 655.7	20834
 656.3	20846
 656.8	20780
 657.3	20825
 657.8	20771
 658.4	20757
 658.9	20759
 659.4	20841
 659.9	20828
 660.5	20803
 661.0	20842
 661.5	20886
 662.1	20842
 662.6	20851
 663.1	20804
 663.6	20891
 664.2	20846
 664.7	20809
 665.2	20729
 665.7	20863
 666.3	20831
 666.8	20841
 667.3	20850
 667.8	20804
 668.4	20843
 668.9	20848
 669.4	20838
 669.9	20873
 670.5	20810
 671.0	20834
 671.5	20789
 672.0	20863
 672.6	20867
 673.1	20893
 673.6	20803
 674.1	20847
 674.7	20836
 675.2	20895
 675.7	20755
 676.2	20775
 676.8	20825
 677.3	20853
 677.8	20777
 678.3	20906
 678.9	20833
 679.4	20789
 679.9	20854
 680.4	20871
 681.0	20825
 681.5	20875
 682.0	20850
 682.5	20877
 683.1	20789
 683.6	20851
 684.1	20792
 684.6	20906
 685.1	20831
 685.7	20867
 686.2	20838
 686.7	20798
 687.2	20791
 687.8	20872
 688.3	20807
 688.8	20845
 689.3	20781
 689.8	20810
 690.4	20813
 690.9	20815
 691.4	20810
 691.9	20847
 692.4	20801
 693.0	20879
 693.5	20846
 694.0	20827
 694.5	20820
 695.1	20800
 695.6	20765
 696.1	20840
 696.6	20821
 697.1	20839
 697.7	20869
 698.2	20802
 698.7	20829
 699.2	20787
 699.7	20794
 700.3	20777
 700.8	20756
 701.3	20876
 701.8	20840
 702.3	20786
 702.8	20797
 703.4	20761
 703.9	20785
 704.4	20786
 704.9	20751
 705.4	20763
 706.0	20869
 706.5	20861
 707.0	20773
 707.5	20767
 708.0	20805
 708.5	20760
 709.1	20837
 709.6	20806
 710.1	20775
 710.6	20757
 711.1	20762
 711.7	20793
 712.2	20803
 712.7	20809
 713.2	20793
 713.7	20795
 714.2	20757
 714.8	20842
 715.3	20791
 715.8	20792
 716.3	20806
 716.8	20710
 717.3	20700
 717.8	20817
 718.4	20823
 718.9	20758
 719.4	20845
 719.9	20744
 720.4	20800
 720.9	20809
 721.4	20804
 722.0	20821
 722.5	20806
 723.0	20790
 723.5	20801
 724.0	20760
 724.5	20759
 725.0	20773
 725.6	20705
 726.1	20755
 726.6	20879
 727.1	20817
 727.6	20853
 728.1	20870
 728.6	20827
 729.1	20821
 729.7	20811
 730.2	20835
 730.7	20871
 731.2	20897
 731.7	20889
 732.2	20899
 732.7	20879
 733.2	20929
 733.8	20898
 734.3	20921
 734.8	20883
 735.3	20906
 735.8	20883
 736.3	20854
 736.8	20889
 737.3	20925
 737.8	20875
 738.4	20868
 738.9	20812
 739.4	20903
 739.9	20889
 740.4	20890
 740.9	20885
 741.4	20887
 741.9	20873
 742.4	20893
 742.9	20878
 743.4	20979
 744.0	20892
 744.5	20894
 745.0	20912
 745.5	20997
 746.0	20983
 746.5	20980
 747.0	20929
 747.5	20915
 748.0	20889
 748.5	20912
 749.0	20933
 749.5	21034
 750.0	20862
 750.5	20940
 751.1	20951
 751.6	20953
 752.1	20955
 752.6	20922
 753.1	20951
 753.6	20895
 754.1	20871
 754.6	20925
 755.1	20891
 755.6	20908
 756.1	20824
 756.6	20943
 757.1	20913
 757.6	20904
 758.1	20873
 758.6	20903
 759.1	20833
 759.6	20885
 760.1	20835
 760.7	20805
 761.2	20890
 761.7	20835
 762.2	20830
 762.7	20895
 763.2	20751
 763.7	20845
 764.2	20788
 764.7	20797
 765.2	20842
 765.7	20824
 766.2	20791
 766.7	20846
 767.2	20801
 767.7	20823
 768.2	20811
 768.7	20781
 769.2	20783
 769.7	20840
 770.2	20810
 770.7	20818
 771.2	20797
 771.7	20778
 772.2	20800
 772.7	20858
 773.2	20839
 773.7	20795
 774.2	20742
 774.7	20801
 775.2	20798
 775.7	20774
 776.2	20776
 776.7	20807
 777.2	20732
 777.7	20817
 778.2	20806
 778.7	20851
 779.2	20858
 779.7	20895
 780.2	20734
 780.7	20808
 781.2	20819
 781.7	20893
 782.2	20812
 782.6	20899
 783.1	20906
 783.6	20867
 784.1	20841
 784.6	20828
 785.1	20844
 785.6	20835
 786.1	20871
 786.6	20897
 787.1	20831
 787.6	20843
 788.1	20840
 788.6	20829
 789.1	20830
 789.6	20874
 790.1	20891
 790.6	20900
 791.1	20801
 791.6	20810
 792.0	20841
 792.5	20875
 793.0	20872
 793.5	20869
 794.0	20808
 794.5	20907
 795.0	20897
 795.5	20869
 796.0	20888
 796.5	20841
 797.0	20878
 797.5	20928
 798.0	20784
 798.4	20833
 798.9	20820
 799.4	20855
 799.9	20872
 800.4	20733
 800.9	20844
 801.4	20925
 801.9	20889
 802.4	20819
 802.9	20899
 803.3	20903
 803.8	20879
 804.3	20829
 804.8	20907
 805.3	20860
 805.8	20863
 806.3	20860
 806.8	20857
 807.2	20859
 807.7	20835
 808.2	20872
 808.7	20794
 809.2	20815
 809.7	20758
 810.2	20833
 810.7	20774
 811.1	20803
 811.6	20807
 812.1	20771
 812.6	20734
 813.1	20792
 813.6	20815
 814.1	20798
 814.5	20763
 815.0	20794
 815.5	20761
 816.0	20721
 816.5	20795
 817.0	20747
 817.4	20737
 817.9	20779
 818.4	20715
 818.9	20807
 819.4	20765
 819.9	20741
 820.3	20716
 820.8	20723
 821.3	20735
 821.8	20764
 822.3	20697
 822.7	20684
 823.2	20753
 823.7	20699
 824.2	20713
 824.7	20697
 825.2	20725
 825.6	20701
 826.1	20691
 826.6	20754
 827.1	20740
 827.6	20734
 828.0	20674
 828.5	20653
 829.0	20696
 829.5	20641
 829.9	20651
 830.4	20722
 830.9	20706
 831.4	20733
 831.9	20691
 832.3	20778
 832.8	20717
 833.3	20714
 833.8	20800
 834.2	20792
 834.7	20637
 835.2	20739
 835.7	20742
 836.1	20741
 836.6	20721
 837.1	20729
 837.6	20742
 838.0	20781
 838.5	20811
 839.0	20810
 839.5	20800
 839.9	20719
 840.4	20734
 840.9	20700
 841.4	20740
 841.8	20771
 842.3	20787
 842.8	20808
 843.3	20811
 843.7	20701
 844.2	20697
 844.7	20789
 845.1	20762
 845.6	20681
 846.1	20707
 846.6	20740
 847.0	20639
 847.5	20701
 848.0	20684
 848.4	20727
 848.9	20691
 849.4	20682
 849.8	20709
 850.3	20703
 850.8	20757
 851.3	20721
 851.7	20719
 852.2	20726
 852.7	20719
 853.1	20696
 853.6	20658
 854.1	20697
 854.5	20664
 855.0	20654
 855.5	20649
 855.9	20721
 856.4	20713
 856.9	20618
 857.3	20688
 857.8	20664
 858.3	20715
 858.7	20671
 859.2	20685
 859.7	20673
 860.1	20734
 860.6	20712
 861.1	20655
 861.5	20703
 862.0	20714
 862.4	20689
 862.9	20655
 863.4	20694
 863.8	20699
 864.3	20703
 864.8	20620
 865.2	20677
 865.7	20704
 866.1	20718
 866.6	20635
 867.1	20715
 867.5	20708
 868.0	20681
 868.5	20636
 868.9	20645
 869.4	20749
 869.8	20703
 870.3	20657
 870.8	20729
 871.2	20679
 871.7	20669
 872.1	20625
 872.6	20684
 873.0	20668
 873.5	20763
 874.0	20774
 874.4	20675
 874.9	20741
 875.3	20725
 875.8	20648
 876.2	20450
 876.7	20308
 877.2	19951
 877.6	19523
 878.1	19101
