#xlabel Wavelength (nm)
#ylabel Spectrometer Array Counts
#title Exposure time is 12000 ms
## lambda	counts
 349.8	20558
 350.3	20793
 350.8	21038
 351.3	21250
 351.9	21378
 352.4	21525
 352.9	21620
 353.4	21607
 354.0	21630
 354.5	21702
 355.0	21719
 355.5	21753
 356.0	21721
 356.6	21688
 357.1	21739
 357.6	21712
 358.1	21746
 358.7	21680
 359.2	21702
 359.7	21713
 360.2	21757
 360.8	21711
 361.3	21816
 361.8	21744
 362.3	21774
 362.9	21721
 363.4	21805
 363.9	21797
 364.4	21827
 364.9	21720
 365.5	21807
 366.0	21777
 366.5	21726
 367.0	21778
 367.6	21795
 368.1	21795
 368.6	21717
 369.1	21777
 369.7	21834
 370.2	21735
 370.7	21737
 371.2	21785
 371.8	21838
 372.3	21746
 372.8	21830
 373.3	21842
 373.9	21771
 374.4	21785
 374.9	21836
 375.5	21708
 376.0	21844
 376.5	21791
 377.0	21822
 377.6	21758
 378.1	21834
 378.6	21751
 379.1	21765
 379.7	21733
 380.2	21809
 380.7	21807
 381.2	21755
 381.8	21739
 382.3	21774
 382.8	21748
 383.4	21797
 383.9	21735
 384.4	21903
 384.9	21797
 385.5	21809
 386.0	21807
 386.5	21881
 387.1	21806
 387.6	21822
 388.1	21811
 388.6	21827
 389.2	21806
 389.7	21825
 390.2	21797
 390.8	21893
 391.3	21846
 391.8	21825
 392.3	21807
 392.9	21779
 393.4	21765
 393.9	21836
 394.5	21829
 395.0	21759
 395.5	21783
 396.0	21775
 396.6	21722
 397.1	21824
 397.6	21818
 398.2	21809
 398.7	21807
 399.2	21909
 399.8	21767
 400.3	21830
 400.8	21877
 401.3	21838
 401.9	21841
 402.4	21869
 402.9	21849
 403.5	21875
 404.0	21844
 404.5	21784
 405.1	21775
 405.6	21879
 406.1	21835
 406.7	21837
 407.2	21827
 407.7	21906
 408.2	21885
 408.8	21882
 409.3	21899
 409.8	21939
 410.4	21890
 410.9	21885
 411.4	21815
 412.0	21880
 412.5	21924
 413.0	21863
 413.6	21898
 414.1	21847
 414.6	21869
 415.2	21913
 415.7	21838
 416.2	21879
 416.8	21858
 417.3	21829
 417.8	21838
 418.4	21931
 418.9	21847
 419.4	21993
 420.0	21855
 420.5	21921
 421.0	21841
 421.5	21930
 422.1	21892
 422.6	21945
 423.1	21967
 423.7	21925
 424.2	21894
 424.7	21931
 425.3	21903
 425.8	21915
 426.3	21889
 426.9	21953
 427.4	21876
 427.9	22003
 428.5	21918
 429.0	21947
 429.6	21894
 430.1	21971
 430.6	21951
 431.2	21869
 431.7	21966
 432.2	21909
 432.8	21877
 433.3	21977
 433.8	21961
 434.4	21909
 434.9	21909
 435.4	21951
 436.0	21912
 436.5	21898
 437.0	21963
 437.6	21919
 438.1	21978
 438.6	21981
 439.2	21997
 439.7	21988
 440.2	21917
 440.8	21947
 441.3	21955
 441.8	21943
 442.4	21910
 442.9	21939
 443.5	21983
 444.0	21976
 444.5	21999
 445.1	21891
 445.6	21921
 446.1	21941
 446.7	21955
 447.2	21965
 447.7	21939
 448.3	22001
 448.8	21938
 449.3	21967
 449.9	21885
 450.4	21983
 450.9	22005
 451.5	21989
 452.0	21935
 452.6	21937
 453.1	21985
 453.6	21973
 454.2	21822
 454.7	21897
 455.2	21906
 455.8	21947
 456.3	21868
 456.8	22004
 457.4	21907
 457.9	21908
 458.5	21955
 459.0	21905
 459.5	21951
 460.1	21891
 460.6	21937
 461.1	21925
 461.7	21977
 462.2	21925
 462.7	21966
 463.3	21873
 463.8	21955
 464.4	22027
 464.9	21953
 465.4	22023
 466.0	21899
 466.5	21975
 467.0	21892
 467.6	21958
 468.1	22051
 468.7	21963
 469.2	21867
 469.7	21963
 470.3	21928
 470.8	21963
 471.3	21927
 471.9	21863
 472.4	21915
 473.0	21955
 473.5	21957
 474.0	21935
 474.6	21927
 475.1	21919
 475.6	21985
 476.2	21985
 476.7	21950
 477.3	22007
 477.8	21931
 478.3	21837
 478.9	22059
 479.4	21925
 479.9	21928
 480.5	21901
 481.0	21913
 481.6	21928
 482.1	21991
 482.6	21946
 483.2	21947
 483.7	22064
 484.2	21981
 484.8	21789
 485.3	21889
 485.9	21965
 486.4	21909
 486.9	21923
 487.5	21867
 488.0	21863
 488.6	21925
 489.1	21929
 489.6	21979
 490.2	21964
 490.7	21912
 491.2	21872
 491.8	21935
 492.3	21871
 492.9	21925
 493.4	21927
 493.9	21948
 494.5	21945
 495.0	22024
 495.6	21931
 496.1	21947
 496.6	22013
 497.2	21917
 497.7	21879
 498.2	21983
 498.8	22002
 499.3	21903
 499.9	21972
 500.4	21967
 500.9	21942
 501.5	21919
 502.0	21995
 502.6	21951
 503.1	22040
 503.6	21981
 504.2	21921
 504.7	21913
 505.2	21967
 505.8	21937
 506.3	22013
 506.9	22002
 507.4	21934
 507.9	21892
 508.5	21910
 509.0	21934
 509.6	21986
 510.1	21933
 510.6	21956
 511.2	21965
 511.7	21923
 512.2	21990
 512.8	21995
 513.3	21932
 513.9	21910
 514.4	21969
 514.9	22046
 515.5	21924
 516.0	22005
 516.6	21970
 517.1	22027
 517.6	22009
 518.2	21994
 518.7	21925
 519.3	21990
 519.8	22045
 520.3	22045
 520.9	21999
 521.4	22015
 521.9	22091
 522.5	22004
 523.0	22043
 523.6	22089
 524.1	21926
 524.6	21983
 525.2	22010
 525.7	22050
 526.3	21958
 526.8	22047
 527.3	21983
 527.9	22004
 528.4	21977
 528.9	22033
 529.5	22040
 530.0	22012
 530.6	22053
 531.1	22037
 531.6	21925
 532.2	22037
 532.7	21979
 533.3	21998
 533.8	22116
 534.3	22132
 534.9	22107
 535.4	22023
 536.0	22090
 536.5	22115
 537.0	22046
 537.6	22066
 538.1	22105
 538.6	22112
 539.2	22025
 539.7	22034
 540.3	22150
 540.8	22087
 541.3	22031
 541.9	22059
 542.4	22057
 543.0	22126
 543.5	22078
 544.0	22045
 544.6	22102
 545.1	22111
 545.6	22155
 546.2	22135
 546.7	22035
 547.3	22102
 547.8	22081
 548.3	22137
 548.9	22043
 549.4	22049
 550.0	22015
 550.5	22095
 551.0	22140
 551.6	22079
 552.1	22106
 552.6	22113
 553.2	22074
 553.7	22047
 554.3	22094
 554.8	22168
 555.3	22001
 555.9	22073
 556.4	22022
 556.9	22126
 557.5	22155
 558.0	22093
 558.6	22063
 559.1	22133
 559.6	22104
 560.2	22099
 560.7	22093
 561.3	22049
 561.8	22014
 562.3	22141
 562.9	22113
 563.4	22140
 563.9	22121
 564.5	22122
 565.0	22100
 565.6	22119
 566.1	22114
 566.6	22115
 567.2	22101
 567.7	22212
 568.2	22102
 568.8	22119
 569.3	22083
 569.9	22156
 570.4	22140
 570.9	22103
 571.5	22098
 572.0	22080
 572.5	22141
 573.1	22076
 573.6	22129
 574.1	22114
 574.7	22102
 575.2	22063
 575.8	22106
 576.3	22182
 576.8	22131
 577.4	22127
 577.9	22143
 578.4	22079
 579.0	22077
 579.5	22189
 580.1	22086
 580.6	22082
 581.1	22155
 581.7	22169
 582.2	22083
 582.7	22123
 583.3	22169
 583.8	22125
 584.3	22063
 584.9	22119
 585.4	22113
 586.0	22071
 586.5	22102
 587.0	22052
 587.6	22136
 588.1	22074
 588.6	22151
 589.2	22082
 589.7	22096
 590.2	22081
 590.8	22081
 591.3	22110
 591.9	22046
 592.4	22125
 592.9	22057
 593.5	22050
 594.0	22051
 594.5	22079
 595.1	22065
 595.6	22049
 596.1	22119
 596.7	22089
 597.2	22143
 597.7	22072
 598.3	22091
 598.8	22067
 599.3	22087
 599.9	22075
 600.4	22073
 601.0	22083
 601.5	22077
 602.0	22070
 602.6	22007
 603.1	22026
 603.6	22029
 604.2	22149
 604.7	22033
 605.2	22111
 605.8	22003
 606.3	22022
 606.8	22098
 607.4	22067
 607.9	22098
 608.4	22033
 609.0	22059
 609.5	22101
 610.0	22061
 610.6	22157
 611.1	22056
 611.6	22063
 612.2	22057
 612.7	22119
 613.2	22089
 613.8	21995
 614.3	22020
 614.8	22065
 615.4	21961
 615.9	22051
 616.4	22096
 617.0	22021
 617.5	22111
 618.0	22113
 618.6	22002
 619.1	22018
 619.6	22083
 620.2	22056
 620.7	22102
 621.2	22035
 621.8	22061
 622.3	22075
 622.8	22009
 623.4	22035
 623.9	22083
 624.4	22046
 625.0	22044
 625.5	22040
 626.0	22046
 626.6	22099
 627.1	22092
 627.6	22035
 628.2	21999
 628.7	22035
 629.2	22019
 629.8	22059
 630.3	22069
 630.8	22064
 631.4	22055
 631.9	22095
 632.4	21985
 632.9	22029
 633.5	22033
 634.0	22001
 634.5	22107
 635.1	22037
 635.6	22029
 636.1	22023
 636.7	22100
 637.2	22102
 637.7	22014
 638.3	22128
 638.8	22134
 639.3	22156
 639.8	22105
 640.4	22132
 640.9	22168
 641.4	22065
 642.0	22066
 642.5	22091
 643.0	22059
 643.6	22160
 644.1	22117
 644.6	22123
 645.1	22170
 645.7	22136
 646.2	22104
 646.7	22113
 647.3	22143
 647.8	22148
 648.3	22123
 648.9	22150
 649.4	22047
 649.9	22120
 650.4	22124
 651.0	22164
 651.5	22167
 652.0	22215
 652.6	22143
 653.1	22219
 653.6	22112
 654.1	22186
 654.7	22122
 655.2	22202
 655.7	22231
 656.3	22241
 656.8	22161
 657.3	22218
 657.8	22144
 658.4	22128
 658.9	22125
 659.4	22215
 659.9	22201
 660.5	22162
 661.0	22209
 661.5	22257
 662.1	22201
 662.6	22211
 663.1	22169
 663.6	22247
 664.2	22195
 664.7	22163
 665.2	22072
 665.7	22226
 666.3	22183
 666.8	22195
 667.3	22203
 667.8	22152
 668.4	22189
 668.9	22202
 669.4	22192
 669.9	22235
 670.5	22161
 671.0	22187
 671.5	22134
 672.0	22211
 672.6	22221
 673.1	22254
 673.6	22163
 674.1	22209
 674.7	22197
 675.2	22262
 675.7	22106
 676.2	22123
 676.8	22191
 677.3	22220
 677.8	22139
 678.3	22279
 678.9	22205
 679.4	22151
 679.9	22228
 680.4	22234
 681.0	22200
 681.5	22254
 682.0	22220
 682.5	22255
 683.1	22162
 683.6	22229
 684.1	22163
 684.6	22288
 685.1	22218
 685.7	22248
 686.2	22213
 686.7	22182
 687.2	22157
 687.8	22258
 688.3	22185
 688.8	22220
 689.3	22157
 689.8	22192
 690.4	22187
 690.9	22188
 691.4	22189
 691.9	22222
 692.4	22174
 693.0	22255
 693.5	22217
 694.0	22201
 694.5	22193
 695.1	22167
 695.6	22125
 696.1	22204
 696.6	22186
 697.1	22211
 697.7	22240
 698.2	22157
 698.7	22192
 699.2	22151
 699.7	22165
 700.3	22142
 700.8	22120
 701.3	22247
 701.8	22207
 702.3	22151
 702.8	22163
 703.4	22133
 703.9	22156
 704.4	22161
 704.9	22133
 705.4	22135
 706.0	22249
 706.5	22247
 707.0	22157
 707.5	22153
 708.0	22193
 708.5	22146
 709.1	22231
 709.6	22196
 710.1	22173
 710.6	22149
 711.1	22159
 711.7	22191
 712.2	22200
 712.7	22218
 713.2	22201
 713.7	22214
 714.2	22163
 714.8	22268
 715.3	22209
 715.8	22215
 716.3	22225
 716.8	22133
 717.3	22115
 717.8	22247
 718.4	22260
 718.9	22186
 719.4	22288
 719.9	22177
 720.4	22228
 720.9	22230
 721.4	22230
 722.0	22257
 722.5	22229
 723.0	22212
 723.5	22227
 724.0	22184
 724.5	22162
 725.0	22193
 725.6	22107
 726.1	22161
 726.6	22295
 727.1	22223
 727.6	22267
 728.1	22287
 728.6	22230
 729.1	22217
 729.7	22205
 730.2	22231
 730.7	22267
 731.2	22302
 731.7	22285
 732.2	22295
 732.7	22269
 733.2	22321
 733.8	22295
 734.3	22305
 734.8	22270
 735.3	22284
 735.8	22267
 736.3	22232
 736.8	22264
 737.3	22311
 737.8	22249
 738.4	22232
 738.9	22177
 739.4	22269
 739.9	22260
 740.4	22258
 740.9	22239
 741.4	22239
 741.9	22231
 742.4	22261
 742.9	22233
 743.4	22343
 744.0	22255
 744.5	22245
 745.0	22268
 745.5	22364
 746.0	22337
 746.5	22342
 747.0	22282
 747.5	22279
 748.0	22244
 748.5	22277
 749.0	22289
 749.5	22407
 750.0	22225
 750.5	22303
 751.1	22319
 751.6	22331
 752.1	22328
 752.6	22291
 753.1	22336
 753.6	22267
 754.1	22246
 754.6	22309
 755.1	22270
 755.6	22293
 756.1	22209
 756.6	22332
 757.1	22297
 757.6	22297
 758.1	22274
 758.6	22295
 759.1	22232
 759.6	22286
 760.1	22238
 760.7	22212
 761.2	22304
 761.7	22253
 762.2	22241
 762.7	22319
 763.2	22167
 763.7	22281
 764.2	22213
 764.7	22231
 765.2	22284
 765.7	22258
 766.2	22222
 766.7	22299
 767.2	22250
 767.7	22280
 768.2	22269
 768.7	22241
 769.2	22245
 769.7	22302
 770.2	22279
 770.7	22287
 771.2	22269
 771.7	22253
 772.2	22277
 772.7	22337
 773.2	22322
 773.7	22279
 774.2	22224
 774.7	22290
 775.2	22286
 775.7	22268
 776.2	22262
 776.7	22301
 777.2	22222
 777.7	22319
 778.2	22299
 778.7	22351
 779.2	22363
 779.7	22401
 780.2	22224
 780.7	22313
 781.2	22318
 781.7	22405
 782.2	22315
 782.6	22405
 783.1	22423
 783.6	22380
 784.1	22351
 784.6	22337
 785.1	22353
 785.6	22350
 786.1	22391
 786.6	22411
 787.1	22350
 787.6	22361
 788.1	22357
 788.6	22342
 789.1	22337
 789.6	22396
 790.1	22421
 790.6	22421
 791.1	22314
 791.6	22335
 792.0	22364
 792.5	22415
 793.0	22401
 793.5	22413
 794.0	22343
 794.5	22456
 795.0	22434
 795.5	22418
 796.0	22443
 796.5	22383
 797.0	22426
 797.5	22488
 798.0	22338
 798.4	22393
 798.9	22394
 799.4	22423
 799.9	22446
 800.4	22301
 800.9	22433
 801.4	22519
 801.9	22490
 802.4	22418
 802.9	22502
 803.3	22509
 803.8	22491
 804.3	22435
 804.8	22518
 805.3	22485
 805.8	22486
 806.3	22493
 806.8	22491
 807.2	22494
 807.7	22485
 808.2	22525
 808.7	22450
 809.2	22471
 809.7	22415
 810.2	22498
 810.7	22434
 811.1	22475
 811.6	22493
 812.1	22441
 812.6	22411
 813.1	22481
 813.6	22508
 814.1	22495
 814.5	22453
 815.0	22494
 815.5	22466
 816.0	22423
 816.5	22507
 817.0	22463
 817.4	22451
 817.9	22493
 818.4	22431
 818.9	22543
 819.4	22494
 819.9	22477
 820.3	22447
 820.8	22463
 821.3	22474
 821.8	22483
 822.3	22442
 822.7	22426
 823.2	22500
 823.7	22451
 824.2	22467
 824.7	22441
 825.2	22475
 825.6	22457
 826.1	22450
 826.6	22515
 827.1	22505
 827.6	22503
 828.0	22438
 828.5	22412
 829.0	22469
 829.5	22407
 829.9	22419
 830.4	22490
 830.9	22474
 831.4	22514
 831.9	22463
 832.3	22559
 832.8	22497
 833.3	22499
 833.8	22595
 834.2	22587
 834.7	22413
 835.2	22523
 835.7	22527
 836.1	22531
 836.6	22514
 837.1	22521
 837.6	22538
 838.0	22578
 838.5	22604
 839.0	22609
 839.5	22609
 839.9	22522
 840.4	22531
 840.9	22495
 841.4	22547
 841.8	22573
 842.3	22592
 842.8	22614
 843.3	22618
 843.7	22512
 844.2	22503
 844.7	22601
 845.1	22577
 845.6	22488
 846.1	22521
 846.6	22563
 847.0	22446
 847.5	22510
 848.0	22495
 848.4	22542
 848.9	22506
 849.4	22497
 849.8	22526
 850.3	22527
 850.8	22584
 851.3	22551
 851.7	22548
 852.2	22551
 852.7	22545
 853.1	22537
 853.6	22479
 854.1	22531
 854.5	22494
 855.0	22489
 855.5	22482
 855.9	22561
 856.4	22550
 856.9	22464
 857.3	22533
 857.8	22509
 858.3	22559
 858.7	22515
 859.2	22549
 859.7	22536
 860.1	22599
 860.6	22581
 861.1	22523
 861.5	22581
 862.0	22587
 862.4	22563
 862.9	22527
 863.4	22575
 863.8	22589
 864.3	22597
 864.8	22510
 865.2	22565
 865.7	22591
 866.1	22623
 866.6	22535
 867.1	22625
 867.5	22617
 868.0	22601
 868.5	22549
 868.9	22557
 869.4	22679
 869.8	22631
 870.3	22581
 870.8	22662
 871.2	22606
 871.7	22602
 872.1	22547
 872.6	22597
 873.0	22557
 873.5	22643
 874.0	22615
 874.4	22466
 874.9	22479
 875.3	22421
 875.8	22311
 876.2	22077
 876.7	21935
 877.2	21609
 877.6	21244
 878.1	20930
