#xlabel Wavelength (nm)
#ylabel Spectrometer Array Counts
#title Exposure time is 12000 ms
## lambda	counts
 349.8	20833
 350.3	21113
 350.8	21393
 351.3	21640
 351.9	21785
 352.4	21938
 352.9	22037
 353.4	22015
 354.0	22029
 354.5	22093
 355.0	22092
 355.5	22111
 356.0	22067
 356.6	22025
 357.1	22073
 357.6	22046
 358.1	22086
 358.7	22021
 359.2	22046
 359.7	22059
 360.2	22115
 360.8	22075
 361.3	22181
 361.8	22125
 362.3	22162
 362.9	22124
 363.4	22211
 363.9	22217
 364.4	22247
 364.9	22149
 365.5	22239
 366.0	22226
 366.5	22177
 367.0	22227
 367.6	22260
 368.1	22267
 368.6	22194
 369.1	22262
 369.7	22327
 370.2	22237
 370.7	22252
 371.2	22301
 371.8	22364
 372.3	22285
 372.8	22377
 373.3	22400
 373.9	22333
 374.4	22361
 374.9	22418
 375.5	22301
 376.0	22449
 376.5	22409
 377.0	22450
 377.6	22400
 378.1	22490
 378.6	22419
 379.1	22443
 379.7	22426
 380.2	22515
 380.7	22527
 381.2	22484
 381.8	22479
 382.3	22530
 382.8	22512
 383.4	22573
 383.9	22513
 384.4	22689
 384.9	22592
 385.5	22610
 386.0	22619
 386.5	22701
 387.1	22629
 387.6	22654
 388.1	22655
 388.6	22682
 389.2	22674
 389.7	22707
 390.2	22693
 390.8	22812
 391.3	22790
 391.8	22795
 392.3	22785
 392.9	22787
 393.4	22793
 393.9	22883
 394.5	22896
 395.0	22853
 395.5	22891
 396.0	22897
 396.6	22866
 397.1	22978
 397.6	22982
 398.2	22982
 398.7	22986
 399.2	23099
 399.8	22964
 400.3	23031
 400.8	23086
 401.3	23057
 401.9	23070
 402.4	23111
 402.9	23095
 403.5	23139
 404.0	23129
 404.5	23079
 405.1	23101
 405.6	23223
 406.1	23205
 406.7	23217
 407.2	23241
 407.7	23341
 408.2	23346
 408.8	23371
 409.3	23408
 409.8	23463
 410.4	23440
 410.9	23460
 411.4	23407
 412.0	23495
 412.5	23556
 413.0	23508
 413.6	23568
 414.1	23537
 414.6	23564
 415.2	23629
 415.7	23573
 416.2	23633
 416.8	23623
 417.3	23619
 417.8	23644
 418.4	23756
 418.9	23698
 419.4	23861
 420.0	23733
 420.5	23818
 421.0	23748
 421.5	23859
 422.1	23831
 422.6	23905
 423.1	23937
 423.7	23906
 424.2	23893
 424.7	23941
 425.3	23920
 425.8	23949
 426.3	23937
 426.9	24015
 427.4	23949
 427.9	24087
 428.5	24031
 429.0	24079
 429.6	24059
 430.1	24163
 430.6	24171
 431.2	24125
 431.7	24267
 432.2	24247
 432.8	24241
 433.3	24382
 433.8	24412
 434.4	24397
 434.9	24431
 435.4	24510
 436.0	24506
 436.5	24523
 437.0	24605
 437.6	24587
 438.1	24652
 438.6	24672
 439.2	24707
 439.7	24703
 440.2	24635
 440.8	24669
 441.3	24685
 441.8	24680
 442.4	24637
 442.9	24668
 443.5	24717
 444.0	24704
 444.5	24730
 445.1	24639
 445.6	24682
 446.1	24725
 446.7	24751
 447.2	24782
 447.7	24787
 448.3	24883
 448.8	24863
 449.3	24931
 449.9	24895
 450.4	25049
 450.9	25110
 451.5	25144
 452.0	25153
 452.6	25193
 453.1	25305
 453.6	25344
 454.2	25249
 454.7	25358
 455.2	25405
 455.8	25488
 456.3	25444
 456.8	25592
 457.4	25531
 457.9	25550
 458.5	25597
 459.0	25566
 459.5	25618
 460.1	25569
 460.6	25614
 461.1	25602
 461.7	25657
 462.2	25616
 462.7	25652
 463.3	25565
 463.8	25641
 464.4	25721
 464.9	25655
 465.4	25747
 466.0	25649
 466.5	25744
 467.0	25677
 467.6	25763
 468.1	25889
 468.7	25834
 469.2	25769
 469.7	25912
 470.3	25899
 470.8	25971
 471.3	25965
 471.9	25952
 472.4	26026
 473.0	26088
 473.5	26137
 474.0	26151
 474.6	26172
 475.1	26201
 475.6	26295
 476.2	26325
 476.7	26309
 477.3	26385
 477.8	26339
 478.3	26281
 478.9	26519
 479.4	26415
 479.9	26450
 480.5	26453
 481.0	26503
 481.6	26551
 482.1	26647
 482.6	26631
 483.2	26672
 483.7	26811
 484.2	26774
 484.8	26621
 485.3	26748
 485.9	26841
 486.4	26821
 486.9	26871
 487.5	26837
 488.0	26865
 488.6	26953
 489.1	26983
 489.6	27049
 490.2	27052
 490.7	27027
 491.2	26997
 491.8	27071
 492.3	27015
 492.9	27079
 493.4	27092
 493.9	27113
 494.5	27107
 495.0	27175
 495.6	27083
 496.1	27094
 496.6	27149
 497.2	27055
 497.7	27016
 498.2	27110
 498.8	27115
 499.3	27029
 499.9	27101
 500.4	27097
 500.9	27088
 501.5	27093
 502.0	27195
 502.6	27185
 503.1	27314
 503.6	27292
 504.2	27279
 504.7	27321
 505.2	27413
 505.8	27439
 506.3	27583
 506.9	27644
 507.4	27653
 507.9	27668
 508.5	27754
 509.0	27858
 509.6	27979
 510.1	27987
 510.6	28067
 511.2	28135
 511.7	28160
 512.2	28264
 512.8	28329
 513.3	28323
 513.9	28329
 514.4	28424
 514.9	28531
 515.5	28419
 516.0	28511
 516.6	28462
 517.1	28512
 517.6	28478
 518.2	28445
 518.7	28361
 519.3	28406
 519.8	28410
 520.3	28367
 520.9	28311
 521.4	28293
 521.9	28340
 522.5	28219
 523.0	28217
 523.6	28243
 524.1	28079
 524.6	28118
 525.2	28136
 525.7	28181
 526.3	28108
 526.8	28211
 527.3	28165
 527.9	28215
 528.4	28213
 528.9	28289
 529.5	28334
 530.0	28361
 530.6	28448
 531.1	28475
 531.6	28424
 532.2	28586
 532.7	28597
 533.3	28690
 533.8	28862
 534.3	28957
 534.9	28995
 535.4	28995
 536.0	29122
 536.5	29205
 537.0	29219
 537.6	29290
 538.1	29367
 538.6	29442
 539.2	29405
 539.7	29467
 540.3	29607
 540.8	29577
 541.3	29558
 541.9	29622
 542.4	29635
 543.0	29715
 543.5	29685
 544.0	29650
 544.6	29693
 545.1	29717
 545.6	29742
 546.2	29722
 546.7	29611
 547.3	29679
 547.8	29644
 548.3	29681
 548.9	29571
 549.4	29567
 550.0	29523
 550.5	29595
 551.0	29627
 551.6	29566
 552.1	29572
 552.6	29575
 553.2	29518
 553.7	29497
 554.3	29538
 554.8	29620
 555.3	29455
 555.9	29527
 556.4	29503
 556.9	29633
 557.5	29666
 558.0	29629
 558.6	29621
 559.1	29700
 559.6	29705
 560.2	29729
 560.7	29756
 561.3	29737
 561.8	29726
 562.3	29881
 562.9	29871
 563.4	29934
 563.9	29923
 564.5	29956
 565.0	29957
 565.6	29976
 566.1	29994
 566.6	29999
 567.2	29999
 567.7	30101
 568.2	30034
 568.8	30041
 569.3	30023
 569.9	30094
 570.4	30068
 570.9	30049
 571.5	30054
 572.0	30056
 572.5	30126
 573.1	30073
 573.6	30153
 574.1	30141
 574.7	30155
 575.2	30141
 575.8	30202
 576.3	30300
 576.8	30274
 577.4	30304
 577.9	30345
 578.4	30328
 579.0	30357
 579.5	30494
 580.1	30426
 580.6	30472
 581.1	30581
 581.7	30629
 582.2	30588
 582.7	30646
 583.3	30716
 583.8	30706
 584.3	30675
 584.9	30751
 585.4	30761
 586.0	30760
 586.5	30809
 587.0	30794
 587.6	30887
 588.1	30853
 588.6	30925
 589.2	30886
 589.7	30907
 590.2	30905
 590.8	30889
 591.3	30910
 591.9	30853
 592.4	30912
 592.9	30825
 593.5	30795
 594.0	30776
 594.5	30784
 595.1	30730
 595.6	30675
 596.1	30721
 596.7	30673
 597.2	30687
 597.7	30598
 598.3	30599
 598.8	30555
 599.3	30534
 599.9	30479
 600.4	30457
 601.0	30449
 601.5	30437
 602.0	30405
 602.6	30349
 603.1	30366
 603.6	30373
 604.2	30472
 604.7	30387
 605.2	30469
 605.8	30375
 606.3	30415
 606.8	30491
 607.4	30501
 607.9	30566
 608.4	30522
 609.0	30584
 609.5	30649
 610.0	30636
 610.6	30758
 611.1	30699
 611.6	30767
 612.2	30794
 612.7	30881
 613.2	30911
 613.8	30867
 614.3	30937
 614.8	31010
 615.4	30989
 615.9	31133
 616.4	31231
 617.0	31213
 617.5	31342
 618.0	31412
 618.6	31399
 619.1	31486
 619.6	31595
 620.2	31673
 620.7	31791
 621.2	31800
 621.8	31884
 622.3	31960
 622.8	31979
 623.4	32045
 623.9	32141
 624.4	32144
 625.0	32168
 625.5	32169
 626.0	32192
 626.6	32266
 627.1	32240
 627.6	32186
 628.2	32153
 628.7	32199
 629.2	32170
 629.8	32185
 630.3	32167
 630.8	32143
 631.4	32082
 631.9	32081
 632.4	31929
 632.9	31916
 633.5	31886
 634.0	31813
 634.5	31839
 635.1	31744
 635.6	31703
 636.1	31651
 636.7	31646
 637.2	31615
 637.7	31474
 638.3	31557
 638.8	31515
 639.3	31515
 639.8	31413
 640.4	31407
 640.9	31419
 641.4	31305
 642.0	31270
 642.5	31275
 643.0	31240
 643.6	31325
 644.1	31273
 644.6	31286
 645.1	31305
 645.7	31295
 646.2	31241
 646.7	31277
 647.3	31301
 647.8	31325
 648.3	31299
 648.9	31351
 649.4	31266
 649.9	31357
 650.4	31386
 651.0	31460
 651.5	31482
 652.0	31563
 652.6	31537
 653.1	31637
 653.6	31567
 654.1	31651
 654.7	31636
 655.2	31755
 655.7	31813
 656.3	31846
 656.8	31818
 657.3	31893
 657.8	31860
 658.4	31891
 658.9	31930
 659.4	32018
 659.9	32031
 660.5	32021
 661.0	32076
 661.5	32138
 662.1	32104
 662.6	32123
 663.1	32093
 663.6	32189
 664.2	32135
 664.7	32119
 665.2	32047
 665.7	32175
 666.3	32127
 666.8	32126
 667.3	32129
 667.8	32085
 668.4	32106
 668.9	32117
 669.4	32079
 669.9	32094
 670.5	32017
 671.0	32023
 671.5	31975
 672.0	32010
 672.6	31992
 673.1	32026
 673.6	31913
 674.1	31934
 674.7	31919
 675.2	31951
 675.7	31805
 676.2	31785
 676.8	31841
 677.3	31843
 677.8	31759
 678.3	31853
 678.9	31777
 679.4	31699
 679.9	31769
 680.4	31746
 681.0	31696
 681.5	31721
 682.0	31671
 682.5	31706
 683.1	31599
 683.6	31629
 684.1	31564
 684.6	31667
 685.1	31614
 685.7	31615
 686.2	31596
 686.7	31548
 687.2	31531
 687.8	31610
 688.3	31550
 688.8	31560
 689.3	31498
 689.8	31542
 690.4	31522
 690.9	31546
 691.4	31561
 691.9	31559
 692.4	31539
 693.0	31616
 693.5	31579
 694.0	31567
 694.5	31569
 695.1	31539
 695.6	31495
 696.1	31580
 696.6	31560
 697.1	31582
 697.7	31617
 698.2	31527
 698.7	31569
 699.2	31521
 699.7	31539
 700.3	31489
 700.8	31459
 701.3	31558
 701.8	31515
 702.3	31457
 702.8	31452
 703.4	31435
 703.9	31413
 704.4	31382
 704.9	31350
 705.4	31335
 706.0	31398
 706.5	31366
 707.0	31273
 707.5	31243
 708.0	31266
 708.5	31189
 709.1	31247
 709.6	31193
 710.1	31121
 710.6	31080
 711.1	31040
 711.7	31047
 712.2	31009
 712.7	31007
 713.2	30946
 713.7	30927
 714.2	30845
 714.8	30911
 715.3	30818
 715.8	30797
 716.3	30764
 716.8	30668
 717.3	30629
 717.8	30720
 718.4	30717
 718.9	30633
 719.4	30714
 719.9	30610
 720.4	30655
 720.9	30677
 721.4	30664
 722.0	30703
 722.5	30700
 723.0	30703
 723.5	30733
 724.0	30705
 724.5	30702
 725.0	30760
 725.6	30703
 726.1	30783
 726.6	30908
 727.1	30857
 727.6	30917
 728.1	30958
 728.6	30913
 729.1	30926
 729.7	30918
 730.2	30959
 730.7	30998
 731.2	31047
 731.7	31041
 732.2	31070
 732.7	31041
 733.2	31100
 733.8	31071
 734.3	31109
 734.8	31097
 735.3	31138
 735.8	31146
 736.3	31132
 736.8	31189
 737.3	31259
 737.8	31203
 738.4	31209
 738.9	31167
 739.4	31271
 739.9	31265
 740.4	31291
 740.9	31262
 741.4	31275
 741.9	31270
 742.4	31289
 742.9	31272
 743.4	31359
 744.0	31263
 744.5	31254
 745.0	31260
 745.5	31344
 746.0	31309
 746.5	31315
 747.0	31240
 747.5	31214
 748.0	31187
 748.5	31204
 749.0	31199
 749.5	31288
 750.0	31103
 750.5	31145
 751.1	31130
 751.6	31119
 752.1	31092
 752.6	31041
 753.1	31071
 753.6	30983
 754.1	30946
 754.6	30964
 755.1	30904
 755.6	30898
 756.1	30791
 756.6	30871
 757.1	30822
 757.6	30791
 758.1	30734
 758.6	30705
 759.1	30618
 759.6	30641
 760.1	30564
 760.7	30491
 761.2	30557
 761.7	30483
 762.2	30446
 762.7	30458
 763.2	30314
 763.7	30373
 764.2	30272
 764.7	30255
 765.2	30260
 765.7	30186
 766.2	30133
 766.7	30153
 767.2	30071
 767.7	30050
 768.2	30006
 768.7	29949
 769.2	29905
 769.7	29927
 770.2	29880
 770.7	29863
 771.2	29806
 771.7	29781
 772.2	29776
 772.7	29805
 773.2	29761
 773.7	29698
 774.2	29628
 774.7	29665
 775.2	29623
 775.7	29595
 776.2	29574
 776.7	29599
 777.2	29510
 777.7	29570
 778.2	29537
 778.7	29578
 779.2	29569
 779.7	29596
 780.2	29419
 780.7	29480
 781.2	29475
 781.7	29526
 782.2	29451
 782.6	29515
 783.1	29507
 783.6	29470
 784.1	29418
 784.6	29408
 785.1	29407
 785.6	29407
 786.1	29431
 786.6	29442
 787.1	29379
 787.6	29364
 788.1	29343
 788.6	29326
 789.1	29295
 789.6	29322
 790.1	29333
 790.6	29318
 791.1	29206
 791.6	29202
 792.0	29189
 792.5	29215
 793.0	29179
 793.5	29161
 794.0	29078
 794.5	29151
 795.0	29091
 795.5	29068
 796.0	29047
 796.5	28966
 797.0	28965
 797.5	28996
 798.0	28803
 798.4	28815
 798.9	28779
 799.4	28761
 799.9	28744
 800.4	28569
 800.9	28655
 801.4	28673
 801.9	28605
 802.4	28487
 802.9	28517
 803.3	28484
 803.8	28416
 804.3	28336
 804.8	28361
 805.3	28289
 805.8	28226
 806.3	28193
 806.8	28143
 807.2	28098
 807.7	28047
 808.2	28037
 808.7	27921
 809.2	27896
 809.7	27788
 810.2	27842
 810.7	27736
 811.1	27727
 811.6	27700
 812.1	27615
 812.6	27539
 813.1	27565
 813.6	27557
 814.1	27519
 814.5	27443
 815.0	27449
 815.5	27368
 816.0	27302
 816.5	27339
 817.0	27265
 817.4	27231
 817.9	27241
 818.4	27139
 818.9	27212
 819.4	27147
 819.9	27095
 820.3	27047
 820.8	27028
 821.3	27021
 821.8	27001
 822.3	26927
 822.7	26891
 823.2	26943
 823.7	26871
 824.2	26861
 824.7	26823
 825.2	26827
 825.6	26780
 826.1	26754
 826.6	26801
 827.1	26770
 827.6	26754
 828.0	26674
 828.5	26639
 829.0	26669
 829.5	26595
 829.9	26588
 830.4	26644
 830.9	26600
 831.4	26631
 831.9	26567
 832.3	26639
 832.8	26559
 833.3	26555
 833.8	26629
 834.2	26619
 834.7	26440
 835.2	26525
 835.7	26514
 836.1	26514
 836.6	26486
 837.1	26473
 837.6	26469
 838.0	26499
 838.5	26516
 839.0	26511
 839.5	26498
 839.9	26404
 840.4	26411
 840.9	26361
 841.4	26389
 841.8	26419
 842.3	26421
 842.8	26427
 843.3	26407
 843.7	26299
 844.2	26283
 844.7	26355
 845.1	26325
 845.6	26231
 846.1	26247
 846.6	26276
 847.0	26156
 847.5	26200
 848.0	26167
 848.4	26198
 848.9	26145
 849.4	26108
 849.8	26119
 850.3	26121
 850.8	26155
 851.3	26099
 851.7	26077
 852.2	26069
 852.7	26043
 853.1	26028
 853.6	25947
 854.1	25980
 854.5	25928
 855.0	25907
 855.5	25881
 855.9	25932
 856.4	25893
 856.9	25801
 857.3	25841
 857.8	25783
 858.3	25798
 858.7	25735
 859.2	25755
 859.7	25739
 860.1	25790
 860.6	25742
 861.1	25656
 861.5	25688
 862.0	25663
 862.4	25625
 862.9	25561
 863.4	25587
 863.8	25574
 864.3	25554
 864.8	25444
 865.2	25475
 865.7	25470
 866.1	25483
 866.6	25370
 867.1	25438
 867.5	25410
 868.0	25374
 868.5	25312
 868.9	25287
 869.4	25387
 869.8	25334
 870.3	25273
 870.8	25347
 871.2	25285
 871.7	25289
 872.1	25232
 872.6	25278
 873.0	25247
 873.5	25327
 874.0	25307
 874.4	25167
 874.9	25187
 875.3	25118
 875.8	24990
 876.2	24717
 876.7	24520
 877.2	24112
 877.6	23651
 878.1	23215
