#xlabel Wavelength (nm)
#ylabel Spectrometer Array Counts
#title Exposure time is 12000 ms
## lambda	counts
 349.8	20826
 350.3	21097
 350.8	21365
 351.3	21602
 351.9	21744
 352.4	21888
 352.9	21983
 353.4	21963
 354.0	21977
 354.5	22043
 355.0	22047
 355.5	22073
 356.0	22033
 356.6	21989
 357.1	22040
 357.6	22014
 358.1	22059
 358.7	21998
 359.2	22024
 359.7	22046
 360.2	22092
 360.8	22062
 361.3	22169
 361.8	22109
 362.3	22151
 362.9	22106
 363.4	22196
 363.9	22196
 364.4	22237
 364.9	22135
 365.5	22225
 366.0	22208
 366.5	22159
 367.0	22215
 367.6	22240
 368.1	22244
 368.6	22182
 369.1	22243
 369.7	22307
 370.2	22221
 370.7	22231
 371.2	22281
 371.8	22349
 372.3	22267
 372.8	22356
 373.3	22379
 373.9	22311
 374.4	22338
 374.9	22401
 375.5	22284
 376.0	22429
 376.5	22381
 377.0	22430
 377.6	22377
 378.1	22468
 378.6	22401
 379.1	22417
 379.7	22408
 380.2	22496
 380.7	22505
 381.2	22465
 381.8	22461
 382.3	22505
 382.8	22493
 383.4	22551
 383.9	22496
 384.4	22675
 384.9	22567
 385.5	22590
 386.0	22602
 386.5	22681
 387.1	22610
 387.6	22633
 388.1	22635
 388.6	22665
 389.2	22654
 389.7	22686
 390.2	22675
 390.8	22799
 391.3	22769
 391.8	22767
 392.3	22767
 392.9	22765
 393.4	22775
 393.9	22865
 394.5	22881
 395.0	22831
 395.5	22875
 396.0	22879
 396.6	22846
 397.1	22955
 397.6	22960
 398.2	22961
 398.7	22966
 399.2	23080
 399.8	22944
 400.3	23013
 400.8	23065
 401.3	23034
 401.9	23052
 402.4	23084
 402.9	23075
 403.5	23115
 404.0	23100
 404.5	23058
 405.1	23082
 405.6	23204
 406.1	23181
 406.7	23198
 407.2	23220
 407.7	23322
 408.2	23327
 408.8	23346
 409.3	23387
 409.8	23439
 410.4	23417
 410.9	23438
 411.4	23386
 412.0	23470
 412.5	23533
 413.0	23491
 413.6	23539
 414.1	23508
 414.6	23543
 415.2	23607
 415.7	23553
 416.2	23615
 416.8	23603
 417.3	23595
 417.8	23623
 418.4	23734
 418.9	23671
 419.4	23838
 420.0	23711
 420.5	23791
 421.0	23727
 421.5	23835
 422.1	23811
 422.6	23881
 423.1	23912
 423.7	23880
 424.2	23873
 424.7	23913
 425.3	23898
 425.8	23927
 426.3	23915
 426.9	23991
 427.4	23924
 427.9	24067
 428.5	24006
 429.0	24054
 429.6	24025
 430.1	24135
 430.6	24149
 431.2	24103
 431.7	24239
 432.2	24222
 432.8	24215
 433.3	24361
 433.8	24388
 434.4	24371
 434.9	24404
 435.4	24485
 436.0	24477
 436.5	24491
 437.0	24577
 437.6	24562
 438.1	24627
 438.6	24651
 439.2	24677
 439.7	24676
 440.2	24611
 440.8	24643
 441.3	24655
 441.8	24657
 442.4	24613
 442.9	24647
 443.5	24694
 444.0	24685
 444.5	24708
 445.1	24612
 445.6	24655
 446.1	24694
 446.7	24725
 447.2	24756
 447.7	24761
 448.3	24859
 448.8	24835
 449.3	24901
 449.9	24865
 450.4	25020
 450.9	25080
 451.5	25121
 452.0	25119
 452.6	25169
 453.1	25279
 453.6	25314
 454.2	25211
 454.7	25323
 455.2	25374
 455.8	25457
 456.3	25411
 456.8	25559
 457.4	25496
 457.9	25514
 458.5	25567
 459.0	25531
 459.5	25587
 460.1	25532
 460.6	25583
 461.1	25574
 461.7	25630
 462.2	25577
 462.7	25618
 463.3	25538
 463.8	25610
 464.4	25685
 464.9	25629
 465.4	25721
 466.0	25618
 466.5	25712
 467.0	25651
 467.6	25733
 468.1	25855
 468.7	25802
 469.2	25739
 469.7	25873
 470.3	25863
 470.8	25939
 471.3	25932
 471.9	25919
 472.4	25997
 473.0	26055
 473.5	26101
 474.0	26119
 474.6	26139
 475.1	26167
 475.6	26261
 476.2	26291
 476.7	26277
 477.3	26362
 477.8	26314
 478.3	26249
 478.9	26489
 479.4	26385
 479.9	26421
 480.5	26425
 481.0	26470
 481.6	26512
 482.1	26606
 482.6	26596
 483.2	26646
 483.7	26779
 484.2	26739
 484.8	26589
 485.3	26715
 485.9	26806
 486.4	26793
 486.9	26839
 487.5	26798
 488.0	26833
 488.6	26917
 489.1	26946
 489.6	27013
 490.2	27017
 490.7	26996
 491.2	26957
 491.8	27043
 492.3	26982
 492.9	27042
 493.4	27054
 493.9	27077
 494.5	27075
 495.0	27139
 495.6	27052
 496.1	27057
 496.6	27111
 497.2	27018
 497.7	26980
 498.2	27072
 498.8	27077
 499.3	26993
 499.9	27059
 500.4	27058
 500.9	27050
 501.5	27060
 502.0	27155
 502.6	27149
 503.1	27275
 503.6	27260
 504.2	27239
 504.7	27286
 505.2	27382
 505.8	27405
 506.3	27545
 506.9	27610
 507.4	27613
 507.9	27631
 508.5	27719
 509.0	27815
 509.6	27942
 510.1	27948
 510.6	28034
 511.2	28095
 511.7	28125
 512.2	28230
 512.8	28289
 513.3	28285
 513.9	28294
 514.4	28379
 514.9	28492
 515.5	28379
 516.0	28472
 516.6	28421
 517.1	28475
 517.6	28440
 518.2	28401
 518.7	28316
 519.3	28362
 519.8	28369
 520.3	28333
 520.9	28275
 521.4	28254
 521.9	28303
 522.5	28180
 523.0	28174
 523.6	28207
 524.1	28039
 524.6	28074
 525.2	28099
 525.7	28138
 526.3	28077
 526.8	28180
 527.3	28127
 527.9	28179
 528.4	28172
 528.9	28255
 529.5	28300
 530.0	28322
 530.6	28413
 531.1	28445
 531.6	28389
 532.2	28551
 532.7	28561
 533.3	28646
 533.8	28823
 534.3	28912
 534.9	28959
 535.4	28961
 536.0	29081
 536.5	29165
 537.0	29176
 537.6	29242
 538.1	29332
 538.6	29394
 539.2	29365
 539.7	29425
 540.3	29559
 540.8	29540
 541.3	29527
 541.9	29583
 542.4	29586
 543.0	29672
 543.5	29635
 544.0	29610
 544.6	29650
 545.1	29677
 545.6	29699
 546.2	29679
 546.7	29573
 547.3	29639
 547.8	29602
 548.3	29639
 548.9	29531
 549.4	29530
 550.0	29480
 550.5	29553
 551.0	29581
 551.6	29529
 552.1	29531
 552.6	29532
 553.2	29474
 553.7	29455
 554.3	29497
 554.8	29574
 555.3	29412
 555.9	29484
 556.4	29466
 556.9	29586
 557.5	29626
 558.0	29585
 558.6	29581
 559.1	29661
 559.6	29659
 560.2	29691
 560.7	29715
 561.3	29695
 561.8	29682
 562.3	29829
 562.9	29827
 563.4	29891
 563.9	29884
 564.5	29914
 565.0	29907
 565.6	29941
 566.1	29952
 566.6	29957
 567.2	29953
 567.7	30066
 568.2	29990
 568.8	29994
 569.3	29985
 569.9	30053
 570.4	30028
 570.9	30015
 571.5	30013
 572.0	30020
 572.5	30083
 573.1	30035
 573.6	30109
 574.1	30104
 574.7	30115
 575.2	30101
 575.8	30162
 576.3	30257
 576.8	30227
 577.4	30259
 577.9	30299
 578.4	30281
 579.0	30307
 579.5	30454
 580.1	30383
 580.6	30433
 581.1	30533
 581.7	30583
 582.2	30541
 582.7	30602
 583.3	30674
 583.8	30655
 584.3	30633
 584.9	30713
 585.4	30728
 586.0	30717
 586.5	30763
 587.0	30751
 587.6	30842
 588.1	30809
 588.6	30879
 589.2	30838
 589.7	30863
 590.2	30862
 590.8	30844
 591.3	30869
 591.9	30806
 592.4	30863
 592.9	30783
 593.5	30762
 594.0	30735
 594.5	30736
 595.1	30691
 595.6	30631
 596.1	30677
 596.7	30634
 597.2	30653
 597.7	30555
 598.3	30553
 598.8	30507
 599.3	30491
 599.9	30429
 600.4	30418
 601.0	30406
 601.5	30391
 602.0	30356
 602.6	30306
 603.1	30320
 603.6	30331
 604.2	30431
 604.7	30339
 605.2	30425
 605.8	30333
 606.3	30372
 606.8	30450
 607.4	30459
 607.9	30526
 608.4	30483
 609.0	30538
 609.5	30606
 610.0	30595
 610.6	30715
 611.1	30658
 611.6	30725
 612.2	30754
 612.7	30842
 613.2	30865
 613.8	30829
 614.3	30892
 614.8	30969
 615.4	30945
 615.9	31092
 616.4	31189
 617.0	31169
 617.5	31291
 618.0	31367
 618.6	31357
 619.1	31442
 619.6	31551
 620.2	31621
 620.7	31746
 621.2	31759
 621.8	31832
 622.3	31919
 622.8	31933
 623.4	31999
 623.9	32093
 624.4	32094
 625.0	32123
 625.5	32119
 626.0	32150
 626.6	32223
 627.1	32195
 627.6	32138
 628.2	32103
 628.7	32150
 629.2	32127
 629.8	32141
 630.3	32122
 630.8	32094
 631.4	32040
 631.9	32031
 632.4	31882
 632.9	31877
 633.5	31841
 634.0	31771
 634.5	31787
 635.1	31701
 635.6	31660
 636.1	31601
 636.7	31598
 637.2	31573
 637.7	31435
 638.3	31513
 638.8	31467
 639.3	31468
 639.8	31368
 640.4	31366
 640.9	31372
 641.4	31267
 642.0	31225
 642.5	31233
 643.0	31193
 643.6	31275
 644.1	31228
 644.6	31242
 645.1	31262
 645.7	31260
 646.2	31205
 646.7	31235
 647.3	31259
 647.8	31293
 648.3	31258
 648.9	31315
 649.4	31229
 649.9	31310
 650.4	31345
 651.0	31415
 651.5	31443
 652.0	31518
 652.6	31483
 653.1	31595
 653.6	31525
 654.1	31613
 654.7	31592
 655.2	31709
 655.7	31767
 656.3	31799
 656.8	31780
 657.3	31849
 657.8	31813
 658.4	31853
 658.9	31885
 659.4	31975
 659.9	31992
 660.5	31971
 661.0	32031
 661.5	32086
 662.1	32059
 662.6	32083
 663.1	32049
 663.6	32149
 664.2	32093
 664.7	32070
 665.2	32009
 665.7	32131
 666.3	32082
 666.8	32079
 667.3	32082
 667.8	32046
 668.4	32059
 668.9	32067
 669.4	32031
 669.9	32054
 670.5	31969
 671.0	31978
 671.5	31924
 672.0	31959
 672.6	31950
 673.1	31983
 673.6	31870
 674.1	31897
 674.7	31881
 675.2	31909
 675.7	31758
 676.2	31735
 676.8	31801
 677.3	31805
 677.8	31716
 678.3	31814
 678.9	31729
 679.4	31660
 679.9	31723
 680.4	31697
 681.0	31652
 681.5	31683
 682.0	31621
 682.5	31665
 683.1	31555
 683.6	31593
 684.1	31527
 684.6	31625
 685.1	31569
 685.7	31579
 686.2	31553
 686.7	31508
 687.2	31492
 687.8	31561
 688.3	31510
 688.8	31521
 689.3	31459
 689.8	31496
 690.4	31476
 690.9	31495
 691.4	31526
 691.9	31519
 692.4	31495
 693.0	31575
 693.5	31534
 694.0	31530
 694.5	31522
 695.1	31496
 695.6	31450
 696.1	31535
 696.6	31521
 697.1	31546
 697.7	31571
 698.2	31489
 698.7	31519
 699.2	31484
 699.7	31497
 700.3	31450
 700.8	31414
 701.3	31521
 701.8	31480
 702.3	31411
 702.8	31411
 703.4	31389
 703.9	31373
 704.4	31341
 704.9	31301
 705.4	31291
 706.0	31353
 706.5	31333
 707.0	31234
 707.5	31209
 708.0	31217
 708.5	31142
 709.1	31204
 709.6	31153
 710.1	31083
 710.6	31038
 711.1	31007
 711.7	31007
 712.2	30967
 712.7	30969
 713.2	30909
 713.7	30887
 714.2	30803
 714.8	30876
 715.3	30782
 715.8	30755
 716.3	30725
 716.8	30629
 717.3	30594
 717.8	30678
 718.4	30677
 718.9	30597
 719.4	30683
 719.9	30577
 720.4	30623
 720.9	30641
 721.4	30629
 722.0	30667
 722.5	30661
 723.0	30669
 723.5	30699
 724.0	30675
 724.5	30665
 725.0	30721
 725.6	30667
 726.1	30742
 726.6	30873
 727.1	30815
 727.6	30878
 728.1	30920
 728.6	30875
 729.1	30892
 729.7	30886
 730.2	30917
 730.7	30957
 731.2	31007
 731.7	31002
 732.2	31031
 732.7	31000
 733.2	31065
 733.8	31031
 734.3	31071
 734.8	31063
 735.3	31102
 735.8	31105
 736.3	31089
 736.8	31151
 737.3	31223
 737.8	31170
 738.4	31166
 738.9	31127
 739.4	31231
 739.9	31227
 740.4	31255
 740.9	31222
 741.4	31237
 741.9	31231
 742.4	31252
 742.9	31235
 743.4	31319
 744.0	31229
 744.5	31215
 745.0	31218
 745.5	31304
 746.0	31266
 746.5	31277
 747.0	31203
 747.5	31175
 748.0	31150
 748.5	31167
 749.0	31159
 749.5	31248
 750.0	31069
 750.5	31103
 751.1	31095
 751.6	31087
 752.1	31052
 752.6	31005
 753.1	31036
 753.6	30947
 754.1	30908
 754.6	30933
 755.1	30867
 755.6	30865
 756.1	30755
 756.6	30835
 757.1	30787
 757.6	30753
 758.1	30693
 758.6	30670
 759.1	30576
 759.6	30603
 760.1	30525
 760.7	30450
 761.2	30515
 761.7	30450
 762.2	30405
 762.7	30421
 763.2	30283
 763.7	30343
 764.2	30232
 764.7	30221
 765.2	30226
 765.7	30154
 766.2	30099
 766.7	30113
 767.2	30031
 767.7	30014
 768.2	29972
 768.7	29916
 769.2	29873
 769.7	29894
 770.2	29845
 770.7	29830
 771.2	29772
 771.7	29743
 772.2	29742
 772.7	29773
 773.2	29724
 773.7	29660
 774.2	29597
 774.7	29633
 775.2	29592
 775.7	29566
 776.2	29535
 776.7	29565
 777.2	29468
 777.7	29539
 778.2	29505
 778.7	29547
 779.2	29533
 779.7	29563
 780.2	29385
 780.7	29443
 781.2	29436
 781.7	29492
 782.2	29412
 782.6	29476
 783.1	29477
 783.6	29442
 784.1	29385
 784.6	29371
 785.1	29375
 785.6	29373
 786.1	29399
 786.6	29405
 787.1	29342
 787.6	29328
 788.1	29310
 788.6	29294
 789.1	29268
 789.6	29289
 790.1	29303
 790.6	29283
 791.1	29171
 791.6	29165
 792.0	29161
 792.5	29187
 793.0	29146
 793.5	29125
 794.0	29054
 794.5	29122
 795.0	29064
 795.5	29035
 796.0	29017
 796.5	28935
 797.0	28939
 797.5	28964
 798.0	28775
 798.4	28789
 798.9	28743
 799.4	28738
 799.9	28715
 800.4	28539
 800.9	28623
 801.4	28647
 801.9	28571
 802.4	28463
 802.9	28485
 803.3	28457
 803.8	28388
 804.3	28301
 804.8	28330
 805.3	28261
 805.8	28203
 806.3	28161
 806.8	28111
 807.2	28070
 807.7	28019
 808.2	28006
 808.7	27891
 809.2	27868
 809.7	27767
 810.2	27814
 810.7	27705
 811.1	27697
 811.6	27670
 812.1	27583
 812.6	27513
 813.1	27540
 813.6	27529
 814.1	27486
 814.5	27412
 815.0	27423
 815.5	27340
 816.0	27271
 816.5	27315
 817.0	27237
 817.4	27199
 817.9	27211
 818.4	27107
 818.9	27182
 819.4	27117
 819.9	27067
 820.3	27019
 820.8	26997
 821.3	26994
 821.8	26973
 822.3	26899
 822.7	26860
 823.2	26918
 823.7	26846
 824.2	26837
 824.7	26797
 825.2	26804
 825.6	26762
 826.1	26729
 826.6	26779
 827.1	26747
 827.6	26729
 828.0	26651
 828.5	26615
 829.0	26646
 829.5	26569
 829.9	26564
 830.4	26615
 830.9	26585
 831.4	26602
 831.9	26537
 832.3	26607
 832.8	26537
 833.3	26530
 833.8	26603
 834.2	26591
 834.7	26415
 835.2	26501
 835.7	26494
 836.1	26486
 836.6	26453
 837.1	26452
 837.6	26447
 838.0	26481
 838.5	26487
 839.0	26485
 839.5	26476
 839.9	26384
 840.4	26383
 840.9	26336
 841.4	26363
 841.8	26397
 842.3	26397
 842.8	26401
 843.3	26388
 843.7	26271
 844.2	26256
 844.7	26331
 845.1	26302
 845.6	26204
 846.1	26219
 846.6	26247
 847.0	26134
 847.5	26178
 848.0	26141
 848.4	26174
 848.9	26118
 849.4	26090
 849.8	26099
 850.3	26095
 850.8	26131
 851.3	26075
 851.7	26055
 852.2	26043
 852.7	26025
 853.1	26001
 853.6	25920
 854.1	25958
 854.5	25901
 855.0	25878
 855.5	25858
 855.9	25905
 856.4	25869
 856.9	25772
 857.3	25819
 857.8	25762
 858.3	25771
 858.7	25711
 859.2	25734
 859.7	25720
 860.1	25765
 860.6	25719
 861.1	25642
 861.5	25664
 862.0	25641
 862.4	25601
 862.9	25543
 863.4	25559
 863.8	25551
 864.3	25535
 864.8	25427
 865.2	25456
 865.7	25447
 866.1	25465
 866.6	25354
 867.1	25419
 867.5	25391
 868.0	25362
 868.5	25290
 868.9	25265
 869.4	25365
 869.8	25308
 870.3	25249
 870.8	25318
 871.2	25257
 871.7	25247
 872.1	25187
 872.6	25230
 873.0	25189
 873.5	25268
 874.0	25249
 874.4	25105
 874.9	25117
 875.3	25052
 875.8	24921
 876.2	24659
 876.7	24469
 877.2	24078
 877.6	23633
 878.1	23211
