#xlabel Wavelength (nm)
#ylabel Spectrometer Array Counts
#title Exposure time is 9300 ms
## lambda	counts
 349.8	16753
 350.3	16993
 350.8	17223
 351.3	17395
 351.9	17500
 352.4	17603
 352.9	17688
 353.4	17661
 354.0	17672
 354.5	17721
 355.0	17731
 355.5	17755
 356.0	17723
 356.6	17697
 357.1	17738
 357.6	17728
 358.1	17754
 358.7	17695
 359.2	17719
 359.7	17738
 360.2	17771
 360.8	17742
 361.3	17837
 361.8	17788
 362.3	17821
 362.9	17786
 363.4	17860
 363.9	17863
 364.4	17888
 364.9	17808
 365.5	17883
 366.0	17866
 366.5	17829
 367.0	17876
 367.6	17903
 368.1	17905
 368.6	17849
 369.1	17909
 369.7	17961
 370.2	17893
 370.7	17895
 371.2	17946
 371.8	17998
 372.3	17931
 372.8	18005
 373.3	18028
 373.9	17982
 374.4	18003
 374.9	18054
 375.5	17964
 376.0	18079
 376.5	18058
 377.0	18083
 377.6	18039
 378.1	18117
 378.6	18070
 379.1	18087
 379.7	18078
 380.2	18153
 380.7	18163
 381.2	18125
 381.8	18124
 382.3	18170
 382.8	18159
 383.4	18211
 383.9	18170
 384.4	18314
 384.9	18238
 385.5	18264
 386.0	18263
 386.5	18343
 387.1	18281
 387.6	18299
 388.1	18317
 388.6	18339
 389.2	18333
 389.7	18370
 390.2	18357
 390.8	18455
 391.3	18435
 391.8	18450
 392.3	18456
 392.9	18465
 393.4	18469
 393.9	18556
 394.5	18573
 395.0	18537
 395.5	18574
 396.0	18581
 396.6	18564
 397.1	18659
 397.6	18668
 398.2	18675
 398.7	18679
 399.2	18777
 399.8	18663
 400.3	18727
 400.8	18775
 401.3	18765
 401.9	18783
 402.4	18811
 402.9	18808
 403.5	18847
 404.0	18845
 404.5	18818
 405.1	18837
 405.6	18946
 406.1	18934
 406.7	18962
 407.2	18980
 407.7	19082
 408.2	19089
 408.8	19115
 409.3	19158
 409.8	19221
 410.4	19206
 410.9	19222
 411.4	19190
 412.0	19266
 412.5	19328
 413.0	19298
 413.6	19353
 414.1	19331
 414.6	19372
 415.2	19430
 415.7	19385
 416.2	19450
 416.8	19446
 417.3	19447
 417.8	19487
 418.4	19586
 418.9	19541
 419.4	19683
 420.0	19589
 420.5	19663
 421.0	19620
 421.5	19717
 422.1	19707
 422.6	19767
 423.1	19802
 423.7	19790
 424.2	19789
 424.7	19834
 425.3	19818
 425.8	19851
 426.3	19856
 426.9	19927
 427.4	19878
 427.9	19998
 428.5	19961
 429.0	20018
 429.6	20003
 430.1	20103
 430.6	20123
 431.2	20107
 431.7	20229
 432.2	20235
 432.8	20245
 433.3	20383
 433.8	20415
 434.4	20425
 434.9	20464
 435.4	20547
 436.0	20553
 436.5	20579
 437.0	20667
 437.6	20664
 438.1	20727
 438.6	20739
 439.2	20783
 439.7	20785
 440.2	20742
 440.8	20765
 441.3	20777
 441.8	20787
 442.4	20756
 442.9	20786
 443.5	20825
 444.0	20819
 444.5	20850
 445.1	20779
 445.6	20830
 446.1	20866
 446.7	20907
 447.2	20945
 447.7	20956
 448.3	21053
 448.8	21049
 449.3	21125
 449.9	21120
 450.4	21259
 450.9	21339
 451.5	21385
 452.0	21411
 452.6	21481
 453.1	21577
 453.6	21635
 454.2	21585
 454.7	21695
 455.2	21759
 455.8	21832
 456.3	21808
 456.8	21956
 457.4	21911
 457.9	21941
 458.5	21997
 459.0	21972
 459.5	22017
 460.1	21979
 460.6	22030
 461.1	22024
 461.7	22068
 462.2	22027
 462.7	22070
 463.3	22006
 463.8	22077
 464.4	22143
 464.9	22107
 465.4	22187
 466.0	22122
 466.5	22201
 467.0	22171
 467.6	22254
 468.1	22367
 468.7	22330
 469.2	22300
 469.7	22423
 470.3	22446
 470.8	22514
 471.3	22529
 471.9	22531
 472.4	22611
 473.0	22687
 473.5	22738
 474.0	22767
 474.6	22806
 475.1	22831
 475.6	22937
 476.2	22973
 476.7	22976
 477.3	23055
 477.8	23032
 478.3	22989
 478.9	23207
 479.4	23130
 479.9	23183
 480.5	23195
 481.0	23252
 481.6	23303
 482.1	23403
 482.6	23414
 483.2	23465
 483.7	23595
 484.2	23579
 484.8	23472
 485.3	23590
 485.9	23693
 486.4	23681
 486.9	23742
 487.5	23732
 488.0	23775
 488.6	23856
 489.1	23898
 489.6	23963
 490.2	23988
 490.7	23977
 491.2	23957
 491.8	24029
 492.3	23995
 492.9	24054
 493.4	24072
 493.9	24093
 494.5	24094
 495.0	24147
 495.6	24075
 496.1	24079
 496.6	24129
 497.2	24047
 497.7	24023
 498.2	24093
 498.8	24105
 499.3	24034
 499.9	24097
 500.4	24105
 500.9	24105
 501.5	24121
 502.0	24226
 502.6	24238
 503.1	24354
 503.6	24368
 504.2	24371
 504.7	24438
 505.2	24545
 505.8	24595
 506.3	24740
 506.9	24824
 507.4	24875
 507.9	24918
 508.5	25024
 509.0	25145
 509.6	25275
 510.1	25318
 510.6	25421
 511.2	25505
 511.7	25564
 512.2	25683
 512.8	25759
 513.3	25782
 513.9	25809
 514.4	25900
 514.9	26005
 515.5	25927
 516.0	26003
 516.6	25976
 517.1	26011
 517.6	25982
 518.2	25946
 518.7	25875
 519.3	25901
 519.8	25893
 520.3	25857
 520.9	25790
 521.4	25763
 521.9	25785
 522.5	25679
 523.0	25657
 523.6	25675
 524.1	25537
 524.6	25567
 525.2	25584
 525.7	25631
 526.3	25577
 526.8	25679
 527.3	25649
 527.9	25705
 528.4	25717
 528.9	25815
 529.5	25861
 530.0	25902
 530.6	25992
 531.1	26057
 531.6	26043
 532.2	26213
 532.7	26256
 533.3	26370
 533.8	26546
 534.3	26663
 534.9	26727
 535.4	26772
 536.0	26908
 536.5	27018
 537.0	27056
 537.6	27153
 538.1	27259
 538.6	27343
 539.2	27348
 539.7	27421
 540.3	27558
 540.8	27559
 541.3	27558
 541.9	27622
 542.4	27646
 543.0	27726
 543.5	27707
 544.0	27691
 544.6	27726
 545.1	27749
 545.6	27768
 546.2	27750
 546.7	27666
 547.3	27715
 547.8	27683
 548.3	27719
 548.9	27623
 549.4	27619
 550.0	27585
 550.5	27634
 551.0	27661
 551.6	27610
 552.1	27614
 552.6	27618
 553.2	27571
 553.7	27555
 554.3	27588
 554.8	27667
 555.3	27539
 555.9	27604
 556.4	27597
 556.9	27715
 557.5	27761
 558.0	27747
 558.6	27751
 559.1	27829
 559.6	27856
 560.2	27893
 560.7	27927
 561.3	27935
 561.8	27941
 562.3	28081
 562.9	28101
 563.4	28162
 563.9	28174
 564.5	28215
 565.0	28218
 565.6	28255
 566.1	28268
 566.6	28289
 567.2	28290
 567.7	28393
 568.2	28345
 568.8	28352
 569.3	28348
 569.9	28412
 570.4	28401
 570.9	28393
 571.5	28401
 572.0	28406
 572.5	28475
 573.1	28441
 573.6	28510
 574.1	28521
 574.7	28541
 575.2	28539
 575.8	28611
 576.3	28712
 576.8	28707
 577.4	28747
 577.9	28802
 578.4	28811
 579.0	28862
 579.5	28990
 580.1	28955
 580.6	29018
 581.1	29129
 581.7	29193
 582.2	29177
 582.7	29256
 583.3	29329
 583.8	29333
 584.3	29333
 584.9	29411
 585.4	29441
 586.0	29457
 586.5	29515
 587.0	29520
 587.6	29605
 588.1	29585
 588.6	29665
 589.2	29631
 589.7	29657
 590.2	29655
 590.8	29641
 591.3	29657
 591.9	29601
 592.4	29645
 592.9	29571
 593.5	29540
 594.0	29503
 594.5	29489
 595.1	29429
 595.6	29366
 596.1	29400
 596.7	29334
 597.2	29335
 597.7	29256
 598.3	29235
 598.8	29183
 599.3	29157
 599.9	29091
 600.4	29063
 601.0	29045
 601.5	29019
 602.0	28987
 602.6	28940
 603.1	28957
 603.6	28965
 604.2	29048
 604.7	28984
 605.2	29050
 605.8	28983
 606.3	29033
 606.8	29103
 607.4	29131
 607.9	29191
 608.4	29173
 609.0	29242
 609.5	29307
 610.0	29320
 610.6	29441
 611.1	29409
 611.6	29487
 612.2	29527
 612.7	29627
 613.2	29671
 613.8	29664
 614.3	29755
 614.8	29838
 615.4	29854
 615.9	30001
 616.4	30113
 617.0	30119
 617.5	30256
 618.0	30350
 618.6	30375
 619.1	30489
 619.6	30619
 620.2	30719
 620.7	30866
 621.2	30920
 621.8	31023
 622.3	31112
 622.8	31152
 623.4	31242
 623.9	31344
 624.4	31361
 625.0	31391
 625.5	31415
 626.0	31442
 626.6	31502
 627.1	31485
 627.6	31441
 628.2	31406
 628.7	31449
 629.2	31418
 629.8	31419
 630.3	31397
 630.8	31361
 631.4	31288
 631.9	31267
 632.4	31118
 632.9	31073
 633.5	31025
 634.0	30941
 634.5	30937
 635.1	30831
 635.6	30783
 636.1	30701
 636.7	30679
 637.2	30626
 637.7	30488
 638.3	30539
 638.8	30482
 639.3	30460
 639.8	30359
 640.4	30351
 640.9	30339
 641.4	30233
 642.0	30189
 642.5	30181
 643.0	30143
 643.6	30214
 644.1	30162
 644.6	30177
 645.1	30183
 645.7	30189
 646.2	30141
 646.7	30169
 647.3	30201
 647.8	30223
 648.3	30215
 648.9	30273
 649.4	30210
 649.9	30291
 650.4	30330
 651.0	30407
 651.5	30451
 652.0	30531
 652.6	30515
 653.1	30631
 653.6	30589
 654.1	30675
 654.7	30682
 655.2	30802
 655.7	30862
 656.3	30912
 656.8	30913
 657.3	30996
 657.8	30990
 658.4	31032
 658.9	31082
 659.4	31163
 659.9	31201
 660.5	31195
 661.0	31250
 661.5	31313
 662.1	31294
 662.6	31323
 663.1	31306
 663.6	31391
 664.2	31359
 664.7	31337
 665.2	31286
 665.7	31383
 666.3	31350
 666.8	31341
 667.3	31341
 667.8	31303
 668.4	31320
 668.9	31321
 669.4	31281
 669.9	31282
 670.5	31211
 671.0	31221
 671.5	31163
 672.0	31184
 672.6	31175
 673.1	31192
 673.6	31090
 674.1	31107
 674.7	31077
 675.2	31097
 675.7	30971
 676.2	30947
 676.8	30995
 677.3	30989
 677.8	30903
 678.3	30976
 678.9	30893
 679.4	30829
 679.9	30872
 680.4	30853
 681.0	30809
 681.5	30818
 682.0	30763
 682.5	30787
 683.1	30691
 683.6	30705
 684.1	30648
 684.6	30721
 685.1	30669
 685.7	30671
 686.2	30645
 686.7	30606
 687.2	30590
 687.8	30647
 688.3	30589
 688.8	30603
 689.3	30549
 689.8	30578
 690.4	30565
 690.9	30579
 691.4	30601
 691.9	30601
 692.4	30583
 693.0	30645
 693.5	30613
 694.0	30602
 694.5	30597
 695.1	30585
 695.6	30550
 696.1	30615
 696.6	30606
 697.1	30625
 697.7	30651
 698.2	30580
 698.7	30606
 699.2	30571
 699.7	30573
 700.3	30527
 700.8	30509
 701.3	30589
 701.8	30537
 702.3	30477
 702.8	30471
 703.4	30458
 703.9	30417
 704.4	30383
 704.9	30344
 705.4	30331
 706.0	30374
 706.5	30344
 707.0	30245
 707.5	30220
 708.0	30219
 708.5	30155
 709.1	30191
 709.6	30137
 710.1	30077
 710.6	30035
 711.1	30000
 711.7	30003
 712.2	29969
 712.7	29966
 713.2	29921
 713.7	29911
 714.2	29859
 714.8	29926
 715.3	29868
 715.8	29859
 716.3	29855
 716.8	29787
 717.3	29765
 717.8	29854
 718.4	29867
 718.9	29807
 719.4	29890
 719.9	29806
 720.4	29846
 720.9	29866
 721.4	29863
 722.0	29889
 722.5	29883
 723.0	29884
 723.5	29900
 724.0	29883
 724.5	29875
 725.0	29917
 725.6	29861
 726.1	29921
 726.6	30019
 727.1	29969
 727.6	30014
 728.1	30039
 728.6	30005
 729.1	29997
 729.7	29989
 730.2	30017
 730.7	30047
 731.2	30078
 731.7	30065
 732.2	30079
 732.7	30054
 733.2	30091
 733.8	30059
 734.3	30095
 734.8	30089
 735.3	30125
 735.8	30128
 736.3	30132
 736.8	30181
 737.3	30239
 737.8	30193
 738.4	30212
 738.9	30180
 739.4	30266
 739.9	30247
 740.4	30280
 740.9	30253
 741.4	30260
 741.9	30248
 742.4	30266
 742.9	30247
 743.4	30301
 744.0	30207
 744.5	30197
 745.0	30189
 745.5	30242
 746.0	30197
 746.5	30200
 747.0	30135
 747.5	30102
 748.0	30069
 748.5	30072
 749.0	30057
 749.5	30111
 750.0	29944
 750.5	29959
 751.1	29941
 751.6	29914
 752.1	29867
 752.6	29814
 753.1	29829
 753.6	29738
 754.1	29687
 754.6	29691
 755.1	29622
 755.6	29593
 756.1	29485
 756.6	29528
 757.1	29475
 757.6	29425
 758.1	29352
 758.6	29315
 759.1	29214
 759.6	29206
 760.1	29122
 760.7	29049
 761.2	29090
 761.7	29014
 762.2	28963
 762.7	28959
 763.2	28821
 763.7	28850
 764.2	28747
 764.7	28711
 765.2	28689
 765.7	28607
 766.2	28535
 766.7	28531
 767.2	28435
 767.7	28391
 768.2	28339
 768.7	28263
 769.2	28205
 769.7	28210
 770.2	28151
 770.7	28130
 771.2	28072
 771.7	28030
 772.2	28004
 772.7	28026
 773.2	27971
 773.7	27902
 774.2	27834
 774.7	27844
 775.2	27801
 775.7	27773
 776.2	27735
 776.7	27749
 777.2	27664
 777.7	27707
 778.2	27666
 778.7	27692
 779.2	27682
 779.7	27687
 780.2	27535
 780.7	27575
 781.2	27566
 781.7	27605
 782.2	27528
 782.6	27581
 783.1	27565
 783.6	27524
 784.1	27481
 784.6	27461
 785.1	27462
 785.6	27449
 786.1	27466
 786.6	27467
 787.1	27410
 787.6	27384
 788.1	27364
 788.6	27346
 789.1	27308
 789.6	27321
 790.1	27318
 790.6	27298
 791.1	27188
 791.6	27173
 792.0	27153
 792.5	27164
 793.0	27113
 793.5	27082
 794.0	26995
 794.5	27047
 795.0	26985
 795.5	26943
 796.0	26914
 796.5	26832
 797.0	26819
 797.5	26815
 798.0	26643
 798.4	26638
 798.9	26579
 799.4	26546
 799.9	26497
 800.4	26344
 800.9	26391
 801.4	26386
 801.9	26297
 802.4	26178
 802.9	26184
 803.3	26127
 803.8	26041
 804.3	25963
 804.8	25964
 805.3	25871
 805.8	25790
 806.3	25735
 806.8	25672
 807.2	25616
 807.7	25553
 808.2	25515
 808.7	25402
 809.2	25363
 809.7	25247
 810.2	25265
 810.7	25157
 811.1	25117
 811.6	25067
 812.1	24993
 812.6	24907
 813.1	24909
 813.6	24878
 814.1	24829
 814.5	24750
 815.0	24728
 815.5	24641
 816.0	24572
 816.5	24591
 817.0	24508
 817.4	24459
 817.9	24453
 818.4	24361
 818.9	24394
 819.4	24322
 819.9	24275
 820.3	24219
 820.8	24193
 821.3	24158
 821.8	24129
 822.3	24059
 822.7	24015
 823.2	24046
 823.7	23980
 824.2	23959
 824.7	23912
 825.2	23897
 825.6	23855
 826.1	23822
 826.6	23855
 827.1	23820
 827.6	23788
 828.0	23718
 828.5	23676
 829.0	23691
 829.5	23619
 829.9	23610
 830.4	23636
 830.9	23599
 831.4	23607
 831.9	23553
 832.3	23610
 832.8	23539
 833.3	23523
 833.8	23583
 834.2	23554
 834.7	23401
 835.2	23473
 835.7	23463
 836.1	23442
 836.6	23408
 837.1	23407
 837.6	23400
 838.0	23413
 838.5	23421
 839.0	23415
 839.5	23399
 839.9	23309
 840.4	23305
 840.9	23261
 841.4	23283
 841.8	23283
 842.3	23290
 842.8	23293
 843.3	23273
 843.7	23172
 844.2	23140
 844.7	23213
 845.1	23175
 845.6	23097
 846.1	23102
 846.6	23122
 847.0	23013
 847.5	23043
 848.0	23011
 848.4	23029
 848.9	22980
 849.4	22936
 849.8	22940
 850.3	22928
 850.8	22952
 851.3	22901
 851.7	22876
 852.2	22861
 852.7	22835
 853.1	22803
 853.6	22730
 854.1	22759
 854.5	22703
 855.0	22671
 855.5	22643
 855.9	22682
 856.4	22649
 856.9	22550
 857.3	22578
 857.8	22521
 858.3	22527
 858.7	22463
 859.2	22471
 859.7	22463
 860.1	22512
 860.6	22467
 861.1	22388
 861.5	22407
 862.0	22396
 862.4	22340
 862.9	22287
 863.4	22315
 863.8	22307
 864.3	22279
 864.8	22181
 865.2	22211
 865.7	22205
 866.1	22204
 866.6	22108
 867.1	22162
 867.5	22129
 868.0	22093
 868.5	22017
 868.9	22005
 869.4	22071
 869.8	22016
 870.3	21955
 870.8	22007
 871.2	21943
 871.7	21918
 872.1	21843
 872.6	21870
 873.0	21828
 873.5	21879
 874.0	21842
 874.4	21708
 874.9	21712
 875.3	21648
 875.8	21541
 876.2	21323
 876.7	21153
 877.2	20807
 877.6	20376
 878.1	19929
