#xlabel Wavelength (nm)
#ylabel Spectrometer Array Counts
#title Exposure time is 9300 ms
## lambda	counts
 349.8	16570
 350.3	16812
 350.8	17037
 351.3	17210
 351.9	17301
 352.4	17411
 352.9	17484
 353.4	17455
 354.0	17459
 354.5	17513
 355.0	17522
 355.5	17539
 356.0	17504
 356.6	17477
 357.1	17518
 357.6	17501
 358.1	17531
 358.7	17475
 359.2	17487
 359.7	17503
 360.2	17531
 360.8	17499
 361.3	17589
 361.8	17531
 362.3	17562
 362.9	17519
 363.4	17588
 363.9	17587
 364.4	17612
 364.9	17525
 365.5	17593
 366.0	17571
 366.5	17533
 367.0	17574
 367.6	17593
 368.1	17590
 368.6	17525
 369.1	17580
 369.7	17629
 370.2	17555
 370.7	17542
 371.2	17590
 371.8	17637
 372.3	17559
 372.8	17627
 373.3	17639
 373.9	17585
 374.4	17599
 374.9	17641
 375.5	17544
 376.0	17654
 376.5	17618
 377.0	17639
 377.6	17579
 378.1	17647
 378.6	17585
 379.1	17589
 379.7	17570
 380.2	17634
 380.7	17634
 381.2	17590
 381.8	17574
 382.3	17611
 382.8	17591
 383.4	17633
 383.9	17588
 384.4	17721
 384.9	17639
 385.5	17657
 386.0	17655
 386.5	17716
 387.1	17648
 387.6	17663
 388.1	17664
 388.6	17679
 389.2	17659
 389.7	17683
 390.2	17659
 390.8	17734
 391.3	17699
 391.8	17695
 392.3	17678
 392.9	17670
 393.4	17656
 393.9	17720
 394.5	17721
 395.0	17663
 395.5	17683
 396.0	17681
 396.6	17650
 397.1	17730
 397.6	17720
 398.2	17723
 398.7	17723
 399.2	17807
 399.8	17685
 400.3	17741
 400.8	17784
 401.3	17759
 401.9	17773
 402.4	17785
 402.9	17769
 403.5	17790
 404.0	17774
 404.5	17727
 405.1	17733
 405.6	17817
 406.1	17784
 406.7	17785
 407.2	17785
 407.7	17865
 408.2	17849
 408.8	17849
 409.3	17867
 409.8	17907
 410.4	17875
 410.9	17864
 411.4	17822
 412.0	17869
 412.5	17914
 413.0	17869
 413.6	17899
 414.1	17863
 414.6	17888
 415.2	17925
 415.7	17860
 416.2	17908
 416.8	17883
 417.3	17863
 417.8	17883
 418.4	17965
 418.9	17901
 419.4	18025
 420.0	17915
 420.5	17970
 421.0	17913
 421.5	17984
 422.1	17969
 422.6	18010
 423.1	18029
 423.7	18005
 424.2	17983
 424.7	18018
 425.3	17980
 425.8	18004
 426.3	18000
 426.9	18049
 427.4	17989
 427.9	18089
 428.5	18030
 429.0	18061
 429.6	18020
 430.1	18092
 430.6	18079
 431.2	18024
 431.7	18103
 432.2	18068
 432.8	18049
 433.3	18141
 433.8	18138
 434.4	18103
 434.9	18113
 435.4	18153
 436.0	18129
 436.5	18118
 437.0	18188
 437.6	18153
 438.1	18201
 438.6	18203
 439.2	18232
 439.7	18216
 440.2	18162
 440.8	18186
 441.3	18190
 441.8	18189
 442.4	18159
 442.9	18188
 443.5	18218
 444.0	18206
 444.5	18234
 445.1	18150
 445.6	18191
 446.1	18196
 446.7	18214
 447.2	18230
 447.7	18215
 448.3	18273
 448.8	18236
 449.3	18259
 449.9	18209
 450.4	18296
 450.9	18326
 451.5	18322
 452.0	18289
 452.6	18305
 453.1	18349
 453.6	18359
 454.2	18249
 454.7	18314
 455.2	18327
 455.8	18367
 456.3	18311
 456.8	18430
 457.4	18353
 457.9	18359
 458.5	18405
 459.0	18363
 459.5	18397
 460.1	18353
 460.6	18398
 461.1	18386
 461.7	18422
 462.2	18384
 462.7	18418
 463.3	18344
 463.8	18419
 464.4	18475
 464.9	18423
 465.4	18481
 466.0	18383
 466.5	18446
 467.0	18387
 467.6	18447
 468.1	18531
 468.7	18456
 469.2	18397
 469.7	18475
 470.3	18461
 470.8	18488
 471.3	18468
 471.9	18421
 472.4	18470
 473.0	18507
 473.5	18520
 474.0	18513
 474.6	18514
 475.1	18503
 475.6	18570
 476.2	18578
 476.7	18555
 477.3	18609
 477.8	18549
 478.3	18485
 478.9	18671
 479.4	18557
 479.9	18569
 480.5	18551
 481.0	18573
 481.6	18592
 482.1	18647
 482.6	18628
 483.2	18631
 483.7	18742
 484.2	18671
 484.8	18523
 485.3	18613
 485.9	18688
 486.4	18641
 486.9	18661
 487.5	18622
 488.0	18624
 488.6	18675
 489.1	18682
 489.6	18735
 490.2	18725
 490.7	18690
 491.2	18659
 491.8	18709
 492.3	18662
 492.9	18703
 493.4	18724
 493.9	18733
 494.5	18731
 495.0	18798
 495.6	18716
 496.1	18731
 496.6	18783
 497.2	18710
 497.7	18669
 498.2	18758
 498.8	18774
 499.3	18689
 499.9	18753
 500.4	18746
 500.9	18733
 501.5	18719
 502.0	18784
 502.6	18762
 503.1	18840
 503.6	18802
 504.2	18759
 504.7	18765
 505.2	18820
 505.8	18817
 506.3	18883
 506.9	18887
 507.4	18850
 507.9	18825
 508.5	18859
 509.0	18901
 509.6	18960
 510.1	18927
 510.6	18966
 511.2	18983
 511.7	18961
 512.2	19025
 512.8	19041
 513.3	19002
 513.9	18999
 514.4	19054
 514.9	19118
 515.5	19024
 516.0	19095
 516.6	19070
 517.1	19115
 517.6	19098
 518.2	19074
 518.7	19013
 519.3	19070
 519.8	19106
 520.3	19105
 520.9	19060
 521.4	19064
 521.9	19111
 522.5	19043
 523.0	19067
 523.6	19103
 524.1	18961
 524.6	19012
 525.2	19034
 525.7	19069
 526.3	18991
 526.8	19074
 527.3	19029
 527.9	19054
 528.4	19035
 528.9	19086
 529.5	19106
 530.0	19085
 530.6	19129
 531.1	19129
 531.6	19054
 532.2	19169
 532.7	19123
 533.3	19161
 533.8	19272
 534.3	19299
 534.9	19299
 535.4	19247
 536.0	19317
 536.5	19355
 537.0	19317
 537.6	19346
 538.1	19389
 538.6	19410
 539.2	19349
 539.7	19368
 540.3	19466
 540.8	19422
 541.3	19386
 541.9	19414
 542.4	19417
 543.0	19479
 543.5	19441
 544.0	19420
 544.6	19466
 545.1	19468
 545.6	19506
 546.2	19488
 546.7	19406
 547.3	19462
 547.8	19437
 548.3	19482
 548.9	19407
 549.4	19407
 550.0	19383
 550.5	19440
 551.0	19483
 551.6	19432
 552.1	19447
 552.6	19443
 553.2	19427
 553.7	19402
 554.3	19440
 554.8	19509
 555.3	19369
 555.9	19437
 556.4	19395
 556.9	19483
 557.5	19515
 558.0	19468
 558.6	19440
 559.1	19519
 559.6	19495
 560.2	19494
 560.7	19490
 561.3	19469
 561.8	19450
 562.3	19555
 562.9	19544
 563.4	19566
 563.9	19569
 564.5	19567
 565.0	19554
 565.6	19570
 566.1	19573
 566.6	19577
 567.2	19563
 567.7	19660
 568.2	19573
 568.8	19587
 569.3	19557
 569.9	19625
 570.4	19617
 570.9	19587
 571.5	19577
 572.0	19571
 572.5	19627
 573.1	19576
 573.6	19617
 574.1	19608
 574.7	19613
 575.2	19583
 575.8	19609
 576.3	19684
 576.8	19651
 577.4	19656
 577.9	19679
 578.4	19636
 579.0	19646
 579.5	19734
 580.1	19670
 580.6	19671
 581.1	19745
 581.7	19765
 582.2	19691
 582.7	19745
 583.3	19786
 583.8	19750
 584.3	19704
 584.9	19761
 585.4	19771
 586.0	19738
 586.5	19770
 587.0	19726
 587.6	19795
 588.1	19748
 588.6	19824
 589.2	19770
 589.7	19780
 590.2	19767
 590.8	19766
 591.3	19787
 591.9	19739
 592.4	19797
 592.9	19736
 593.5	19729
 594.0	19721
 594.5	19735
 595.1	19716
 595.6	19702
 596.1	19753
 596.7	19718
 597.2	19753
 597.7	19697
 598.3	19701
 598.8	19673
 599.3	19689
 599.9	19667
 600.4	19665
 601.0	19669
 601.5	19656
 602.0	19645
 602.6	19597
 603.1	19616
 603.6	19615
 604.2	19716
 604.7	19623
 605.2	19682
 605.8	19600
 606.3	19626
 606.8	19689
 607.4	19667
 607.9	19702
 608.4	19649
 609.0	19688
 609.5	19724
 610.0	19691
 610.6	19786
 611.1	19710
 611.6	19727
 612.2	19728
 612.7	19790
 613.2	19773
 613.8	19704
 614.3	19739
 614.8	19789
 615.4	19719
 615.9	19798
 616.4	19846
 617.0	19800
 617.5	19891
 618.0	19900
 618.6	19823
 619.1	19861
 619.6	19931
 620.2	19919
 620.7	19977
 621.2	19941
 621.8	19975
 622.3	19993
 622.8	19957
 623.4	19990
 623.9	20045
 624.4	20015
 625.0	20011
 625.5	20026
 626.0	20031
 626.6	20072
 627.1	20070
 627.6	20017
 628.2	19988
 628.7	20026
 629.2	20002
 629.8	20031
 630.3	20044
 630.8	20026
 631.4	20003
 631.9	20033
 632.4	19929
 632.9	19947
 633.5	19944
 634.0	19909
 634.5	19993
 635.1	19925
 635.6	19899
 636.1	19889
 636.7	19943
 637.2	19930
 637.7	19842
 638.3	19934
 638.8	19932
 639.3	19941
 639.8	19895
 640.4	19913
 640.9	19931
 641.4	19846
 642.0	19834
 642.5	19855
 643.0	19828
 643.6	19905
 644.1	19866
 644.6	19875
 645.1	19911
 645.7	19887
 646.2	19858
 646.7	19871
 647.3	19899
 647.8	19898
 648.3	19880
 648.9	19917
 649.4	19832
 649.9	19900
 650.4	19902
 651.0	19942
 651.5	19954
 652.0	19999
 652.6	19941
 653.1	20021
 653.6	19935
 654.1	20014
 654.7	19961
 655.2	20037
 655.7	20070
 656.3	20084
 656.8	20027
 657.3	20083
 657.8	20033
 658.4	20024
 658.9	20026
 659.4	20109
 659.9	20099
 660.5	20075
 661.0	20117
 661.5	20158
 662.1	20118
 662.6	20127
 663.1	20093
 663.6	20165
 664.2	20134
 664.7	20095
 665.2	20029
 665.7	20142
 666.3	20114
 666.8	20119
 667.3	20125
 667.8	20085
 668.4	20116
 668.9	20118
 669.4	20101
 669.9	20133
 670.5	20078
 671.0	20091
 671.5	20044
 672.0	20106
 672.6	20113
 673.1	20132
 673.6	20049
 674.1	20086
 674.7	20071
 675.2	20120
 675.7	19988
 676.2	20004
 676.8	20053
 677.3	20075
 677.8	20002
 678.3	20113
 678.9	20047
 679.4	20003
 679.9	20058
 680.4	20061
 681.0	20033
 681.5	20067
 682.0	20034
 682.5	20066
 683.1	19984
 683.6	20030
 684.1	19979
 684.6	20070
 685.1	20014
 685.7	20037
 686.2	20008
 686.7	19977
 687.2	19964
 687.8	20031
 688.3	19969
 688.8	20003
 689.3	19950
 689.8	19978
 690.4	19971
 690.9	19980
 691.4	19978
 691.9	20008
 692.4	19959
 693.0	20027
 693.5	20005
 694.0	19985
 694.5	19974
 695.1	19954
 695.6	19927
 696.1	19989
 696.6	19973
 697.1	19995
 697.7	20018
 698.2	19956
 698.7	19975
 699.2	19936
 699.7	19942
 700.3	19927
 700.8	19907
 701.3	20017
 701.8	19975
 702.3	19919
 702.8	19927
 703.4	19897
 703.9	19913
 704.4	19913
 704.9	19876
 705.4	19884
 706.0	19976
 706.5	19969
 707.0	19883
 707.5	19875
 708.0	19901
 708.5	19859
 709.1	19924
 709.6	19893
 710.1	19867
 710.6	19844
 711.1	19850
 711.7	19874
 712.2	19875
 712.7	19880
 713.2	19866
 713.7	19870
 714.2	19831
 714.8	19907
 715.3	19858
 715.8	19865
 716.3	19873
 716.8	19792
 717.3	19781
 717.8	19878
 718.4	19892
 718.9	19828
 719.4	19904
 719.9	19824
 720.4	19867
 720.9	19873
 721.4	19867
 722.0	19885
 722.5	19879
 723.0	19866
 723.5	19871
 724.0	19838
 724.5	19829
 725.0	19853
 725.6	19786
 726.1	19831
 726.6	19942
 727.1	19881
 727.6	19921
 728.1	19931
 728.6	19896
 729.1	19880
 729.7	19873
 730.2	19897
 730.7	19933
 731.2	19954
 731.7	19942
 732.2	19946
 732.7	19927
 733.2	19972
 733.8	19945
 734.3	19965
 734.8	19940
 735.3	19957
 735.8	19942
 736.3	19918
 736.8	19946
 737.3	19987
 737.8	19934
 738.4	19931
 738.9	19886
 739.4	19963
 739.9	19951
 740.4	19954
 740.9	19951
 741.4	19941
 741.9	19935
 742.4	19949
 742.9	19939
 743.4	20021
 744.0	19945
 744.5	19935
 745.0	19955
 745.5	20024
 746.0	19997
 746.5	20005
 747.0	19955
 747.5	19944
 748.0	19914
 748.5	19929
 749.0	19948
 749.5	20030
 750.0	19877
 750.5	19935
 751.1	19943
 751.6	19948
 752.1	19929
 752.6	19904
 753.1	19935
 753.6	19877
 754.1	19844
 754.6	19897
 755.1	19859
 755.6	19866
 756.1	19790
 756.6	19887
 757.1	19858
 757.6	19840
 758.1	19812
 758.6	19827
 759.1	19764
 759.6	19797
 760.1	19745
 760.7	19724
 761.2	19788
 761.7	19733
 762.2	19723
 762.7	19781
 763.2	19639
 763.7	19728
 764.2	19667
 764.7	19675
 765.2	19702
 765.7	19682
 766.2	19640
 766.7	19684
 767.2	19640
 767.7	19651
 768.2	19627
 768.7	19599
 769.2	19599
 769.7	19641
 770.2	19611
 770.7	19615
 771.2	19600
 771.7	19573
 772.2	19590
 772.7	19628
 773.2	19614
 773.7	19568
 774.2	19509
 774.7	19568
 775.2	19563
 775.7	19537
 776.2	19534
 776.7	19555
 777.2	19489
 777.7	19558
 778.2	19546
 778.7	19581
 779.2	19593
 779.7	19618
 780.2	19473
 780.7	19541
 781.2	19551
 781.7	19612
 782.2	19532
 782.6	19607
 783.1	19617
 783.6	19579
 784.1	19551
 784.6	19539
 785.1	19551
 785.6	19538
 786.1	19579
 786.6	19587
 787.1	19534
 787.6	19538
 788.1	19531
 788.6	19527
 789.1	19526
 789.6	19559
 790.1	19569
 790.6	19569
 791.1	19486
 791.6	19487
 792.0	19511
 792.5	19549
 793.0	19529
 793.5	19525
 794.0	19457
 794.5	19545
 795.0	19537
 795.5	19508
 796.0	19524
 796.5	19471
 797.0	19500
 797.5	19539
 798.0	19404
 798.4	19455
 798.9	19438
 799.4	19456
 799.9	19454
 800.4	19333
 800.9	19429
 801.4	19494
 801.9	19452
 802.4	19391
 802.9	19457
 803.3	19450
 803.8	19412
 804.3	19366
 804.8	19428
 805.3	19387
 805.8	19373
 806.3	19377
 806.8	19355
 807.2	19352
 807.7	19330
 808.2	19362
 808.7	19287
 809.2	19293
 809.7	19235
 810.2	19298
 810.7	19239
 811.1	19257
 811.6	19255
 812.1	19224
 812.6	19186
 813.1	19231
 813.6	19245
 814.1	19226
 814.5	19187
 815.0	19206
 815.5	19171
 816.0	19127
 816.5	19199
 817.0	19152
 817.4	19130
 817.9	19172
 818.4	19110
 818.9	19183
 819.4	19135
 819.9	19125
 820.3	19095
 820.8	19100
 821.3	19092
 821.8	19097
 822.3	19067
 822.7	19042
 823.2	19098
 823.7	19057
 824.2	19061
 824.7	19042
 825.2	19055
 825.6	19037
 826.1	19031
 826.6	19078
 827.1	19070
 827.6	19063
 828.0	19008
 828.5	18977
 829.0	19018
 829.5	18963
 829.9	18973
 830.4	19022
 830.9	19009
 831.4	19027
 831.9	18993
 832.3	19072
 832.8	19019
 833.3	19016
 833.8	19092
 834.2	19081
 834.7	18936
 835.2	19027
 835.7	19031
 836.1	19019
 836.6	19001
 837.1	19016
 837.6	19028
 838.0	19048
 838.5	19076
 839.0	19079
 839.5	19067
 839.9	18996
 840.4	18997
 840.9	18962
 841.4	19006
 841.8	19022
 842.3	19038
 842.8	19057
 843.3	19053
 843.7	18966
 844.2	18947
 844.7	19038
 845.1	19014
 845.6	18932
 846.1	18955
 846.6	18992
 847.0	18893
 847.5	18937
 848.0	18924
 848.4	18966
 848.9	18935
 849.4	18916
 849.8	18939
 850.3	18937
 850.8	18979
 851.3	18949
 851.7	18948
 852.2	18951
 852.7	18939
 853.1	18915
 853.6	18874
 854.1	18915
 854.5	18885
 855.0	18865
 855.5	18862
 855.9	18930
 856.4	18923
 856.9	18832
 857.3	18888
 857.8	18863
 858.3	18904
 858.7	18861
 859.2	18870
 859.7	18871
 860.1	18925
 860.6	18900
 861.1	18842
 861.5	18886
 862.0	18898
 862.4	18866
 862.9	18831
 863.4	18878
 863.8	18876
 864.3	18879
 864.8	18795
 865.2	18848
 865.7	18871
 866.1	18878
 866.6	18802
 867.1	18877
 867.5	18862
 868.0	18838
 868.5	18788
 868.9	18804
 869.4	18898
 869.8	18855
 870.3	18809
 870.8	18873
 871.2	18823
 871.7	18814
 872.1	18761
 872.6	18807
 873.0	18779
 873.5	18848
 874.0	18831
 874.4	18722
 874.9	18753
 875.3	18715
 875.8	18630
 876.2	18456
 876.7	18335
 877.2	18039
 877.6	17679
 878.1	17323
