#xlabel Wavelength (nm)
#ylabel Spectrometer Array Counts
#title Exposure time is 9300 ms
## lambda	counts
 349.8	16623
 350.3	16865
 350.8	17095
 351.3	17275
 351.9	17372
 352.4	17479
 352.9	17561
 353.4	17530
 354.0	17540
 354.5	17582
 355.0	17593
 355.5	17607
 356.0	17569
 356.6	17540
 357.1	17577
 357.6	17559
 358.1	17589
 358.7	17523
 359.2	17540
 359.7	17551
 360.2	17580
 360.8	17546
 361.3	17637
 361.8	17581
 362.3	17607
 362.9	17567
 363.4	17634
 363.9	17635
 364.4	17658
 364.9	17573
 365.5	17641
 366.0	17619
 366.5	17572
 367.0	17620
 367.6	17635
 368.1	17638
 368.6	17574
 369.1	17626
 369.7	17675
 370.2	17598
 370.7	17591
 371.2	17635
 371.8	17680
 372.3	17607
 372.8	17669
 373.3	17688
 373.9	17633
 374.4	17643
 374.9	17684
 375.5	17589
 376.0	17706
 376.5	17666
 377.0	17683
 377.6	17623
 378.1	17695
 378.6	17633
 379.1	17637
 379.7	17615
 380.2	17680
 380.7	17680
 381.2	17633
 381.8	17615
 382.3	17659
 382.8	17639
 383.4	17677
 383.9	17634
 384.4	17767
 384.9	17687
 385.5	17698
 386.0	17697
 386.5	17765
 387.1	17693
 387.6	17709
 388.1	17712
 388.6	17723
 389.2	17707
 389.7	17728
 390.2	17702
 390.8	17780
 391.3	17747
 391.8	17741
 392.3	17723
 392.9	17716
 393.4	17699
 393.9	17773
 394.5	17772
 395.0	17707
 395.5	17730
 396.0	17723
 396.6	17695
 397.1	17773
 397.6	17764
 398.2	17767
 398.7	17770
 399.2	17853
 399.8	17731
 400.3	17790
 400.8	17833
 401.3	17808
 401.9	17817
 402.4	17829
 402.9	17818
 403.5	17837
 404.0	17818
 404.5	17770
 405.1	17776
 405.6	17868
 406.1	17828
 406.7	17832
 407.2	17835
 407.7	17911
 408.2	17893
 408.8	17890
 409.3	17916
 409.8	17953
 410.4	17920
 410.9	17907
 411.4	17865
 412.0	17917
 412.5	17963
 413.0	17914
 413.6	17951
 414.1	17911
 414.6	17935
 415.2	17971
 415.7	17907
 416.2	17954
 416.8	17931
 417.3	17916
 417.8	17927
 418.4	18013
 418.9	17945
 419.4	18070
 420.0	17955
 420.5	18015
 421.0	17959
 421.5	18033
 422.1	18018
 422.6	18060
 423.1	18073
 423.7	18047
 424.2	18034
 424.7	18064
 425.3	18034
 425.8	18052
 426.3	18046
 426.9	18096
 427.4	18035
 427.9	18135
 428.5	18073
 429.0	18109
 429.6	18066
 430.1	18138
 430.6	18127
 431.2	18065
 431.7	18152
 432.2	18117
 432.8	18092
 433.3	18189
 433.8	18183
 434.4	18149
 434.9	18163
 435.4	18196
 436.0	18175
 436.5	18169
 437.0	18231
 437.6	18204
 438.1	18251
 438.6	18249
 439.2	18276
 439.7	18264
 440.2	18211
 440.8	18239
 441.3	18239
 441.8	18245
 442.4	18203
 442.9	18232
 443.5	18269
 444.0	18252
 444.5	18280
 445.1	18205
 445.6	18236
 446.1	18248
 446.7	18261
 447.2	18278
 447.7	18264
 448.3	18321
 448.8	18276
 449.3	18310
 449.9	18253
 450.4	18340
 450.9	18375
 451.5	18371
 452.0	18336
 452.6	18353
 453.1	18394
 453.6	18406
 454.2	18299
 454.7	18365
 455.2	18373
 455.8	18421
 456.3	18359
 456.8	18480
 457.4	18399
 457.9	18407
 458.5	18454
 459.0	18412
 459.5	18446
 460.1	18401
 460.6	18445
 461.1	18430
 461.7	18471
 462.2	18431
 462.7	18467
 463.3	18393
 463.8	18463
 464.4	18525
 464.9	18468
 465.4	18532
 466.0	18428
 466.5	18495
 467.0	18435
 467.6	18498
 468.1	18577
 468.7	18498
 469.2	18437
 469.7	18523
 470.3	18504
 470.8	18531
 471.3	18514
 471.9	18467
 472.4	18514
 473.0	18553
 473.5	18563
 474.0	18557
 474.6	18563
 475.1	18553
 475.6	18615
 476.2	18626
 476.7	18597
 477.3	18659
 477.8	18591
 478.3	18525
 478.9	18713
 479.4	18605
 479.9	18618
 480.5	18600
 481.0	18615
 481.6	18643
 482.1	18698
 482.6	18675
 483.2	18678
 483.7	18785
 484.2	18719
 484.8	18571
 485.3	18658
 485.9	18732
 486.4	18686
 486.9	18709
 487.5	18667
 488.0	18674
 488.6	18725
 489.1	18729
 489.6	18785
 490.2	18774
 490.7	18737
 491.2	18709
 491.8	18758
 492.3	18711
 492.9	18755
 493.4	18765
 493.9	18779
 494.5	18781
 495.0	18846
 495.6	18765
 496.1	18775
 496.6	18832
 497.2	18751
 497.7	18713
 498.2	18805
 498.8	18825
 499.3	18740
 499.9	18797
 500.4	18794
 500.9	18776
 501.5	18766
 502.0	18825
 502.6	18808
 503.1	18881
 503.6	18855
 504.2	18803
 504.7	18807
 505.2	18869
 505.8	18866
 506.3	18929
 506.9	18937
 507.4	18901
 507.9	18881
 508.5	18910
 509.0	18941
 509.6	18998
 510.1	18979
 510.6	19009
 511.2	19035
 511.7	19011
 512.2	19074
 512.8	19088
 513.3	19055
 513.9	19050
 514.4	19101
 514.9	19167
 515.5	19070
 516.0	19140
 516.6	19117
 517.1	19162
 517.6	19139
 518.2	19122
 518.7	19063
 519.3	19119
 519.8	19158
 520.3	19151
 520.9	19102
 521.4	19112
 521.9	19163
 522.5	19087
 523.0	19112
 523.6	19149
 524.1	19007
 524.6	19056
 525.2	19079
 525.7	19114
 526.3	19031
 526.8	19122
 527.3	19070
 527.9	19093
 528.4	19081
 528.9	19133
 529.5	19150
 530.0	19132
 530.6	19172
 531.1	19181
 531.6	19099
 532.2	19215
 532.7	19172
 533.3	19203
 533.8	19325
 534.3	19356
 534.9	19351
 535.4	19290
 536.0	19366
 536.5	19406
 537.0	19367
 537.6	19393
 538.1	19437
 538.6	19460
 539.2	19399
 539.7	19418
 540.3	19513
 540.8	19472
 541.3	19432
 541.9	19466
 542.4	19471
 543.0	19527
 543.5	19486
 544.0	19471
 544.6	19510
 545.1	19517
 545.6	19555
 546.2	19535
 546.7	19456
 547.3	19512
 547.8	19484
 548.3	19535
 548.9	19454
 549.4	19458
 550.0	19428
 550.5	19488
 551.0	19535
 551.6	19480
 552.1	19495
 552.6	19493
 553.2	19474
 553.7	19451
 554.3	19485
 554.8	19555
 555.3	19421
 555.9	19484
 556.4	19443
 556.9	19533
 557.5	19557
 558.0	19516
 558.6	19495
 559.1	19569
 559.6	19543
 560.2	19547
 560.7	19548
 561.3	19521
 561.8	19499
 562.3	19606
 562.9	19592
 563.4	19622
 563.9	19614
 564.5	19619
 565.0	19601
 565.6	19619
 566.1	19623
 566.6	19623
 567.2	19613
 567.7	19713
 568.2	19626
 568.8	19639
 569.3	19605
 569.9	19674
 570.4	19663
 570.9	19635
 571.5	19625
 572.0	19621
 572.5	19675
 573.1	19625
 573.6	19669
 574.1	19654
 574.7	19657
 575.2	19628
 575.8	19660
 576.3	19738
 576.8	19701
 577.4	19715
 577.9	19727
 578.4	19687
 579.0	19695
 579.5	19779
 580.1	19713
 580.6	19710
 581.1	19791
 581.7	19809
 582.2	19742
 582.7	19791
 583.3	19837
 583.8	19801
 584.3	19755
 584.9	19808
 585.4	19817
 586.0	19787
 586.5	19821
 587.0	19775
 587.6	19851
 588.1	19803
 588.6	19870
 589.2	19817
 589.7	19835
 590.2	19820
 590.8	19817
 591.3	19844
 591.9	19793
 592.4	19850
 592.9	19789
 593.5	19778
 594.0	19771
 594.5	19782
 595.1	19769
 595.6	19748
 596.1	19805
 596.7	19769
 597.2	19797
 597.7	19743
 598.3	19753
 598.8	19728
 599.3	19737
 599.9	19719
 600.4	19714
 601.0	19718
 601.5	19704
 602.0	19695
 602.6	19642
 603.1	19662
 603.6	19662
 604.2	19759
 604.7	19666
 605.2	19735
 605.8	19653
 606.3	19675
 606.8	19744
 607.4	19715
 607.9	19747
 608.4	19700
 609.0	19730
 609.5	19770
 610.0	19744
 610.6	19839
 611.1	19759
 611.6	19773
 612.2	19773
 612.7	19834
 613.2	19823
 613.8	19753
 614.3	19792
 614.8	19841
 615.4	19767
 615.9	19846
 616.4	19895
 617.0	19850
 617.5	19938
 618.0	19952
 618.6	19873
 619.1	19906
 619.6	19981
 620.2	19969
 620.7	20022
 621.2	19985
 621.8	20025
 622.3	20046
 622.8	20007
 623.4	20042
 623.9	20094
 624.4	20069
 625.0	20065
 625.5	20075
 626.0	20085
 626.6	20126
 627.1	20120
 627.6	20065
 628.2	20036
 628.7	20071
 629.2	20053
 629.8	20078
 630.3	20099
 630.8	20077
 631.4	20053
 631.9	20093
 632.4	19982
 632.9	19999
 633.5	19999
 634.0	19959
 634.5	20039
 635.1	19973
 635.6	19952
 636.1	19935
 636.7	19995
 637.2	19983
 637.7	19889
 638.3	19986
 638.8	19985
 639.3	19987
 639.8	19947
 640.4	19957
 640.9	19980
 641.4	19891
 642.0	19884
 642.5	19909
 643.0	19877
 643.6	19951
 644.1	19911
 644.6	19921
 645.1	19959
 645.7	19934
 646.2	19899
 646.7	19918
 647.3	19948
 647.8	19943
 648.3	19926
 648.9	19959
 649.4	19882
 649.9	19951
 650.4	19959
 651.0	19994
 651.5	20005
 652.0	20049
 652.6	19995
 653.1	20074
 653.6	19988
 654.1	20064
 654.7	20008
 655.2	20089
 655.7	20120
 656.3	20135
 656.8	20079
 657.3	20136
 657.8	20085
 658.4	20071
 658.9	20075
 659.4	20163
 659.9	20152
 660.5	20127
 661.0	20167
 661.5	20210
 662.1	20174
 662.6	20181
 663.1	20146
 663.6	20211
 664.2	20177
 664.7	20149
 665.2	20076
 665.7	20189
 666.3	20162
 666.8	20171
 667.3	20173
 667.8	20138
 668.4	20169
 668.9	20174
 669.4	20150
 669.9	20187
 670.5	20128
 671.0	20143
 671.5	20095
 672.0	20156
 672.6	20165
 673.1	20186
 673.6	20100
 674.1	20131
 674.7	20127
 675.2	20177
 675.7	20037
 676.2	20049
 676.8	20102
 677.3	20126
 677.8	20047
 678.3	20160
 678.9	20093
 679.4	20047
 679.9	20105
 680.4	20114
 681.0	20087
 681.5	20121
 682.0	20089
 682.5	20115
 683.1	20030
 683.6	20083
 684.1	20021
 684.6	20123
 685.1	20061
 685.7	20087
 686.2	20051
 686.7	20027
 687.2	20010
 687.8	20083
 688.3	20018
 688.8	20051
 689.3	19999
 689.8	20025
 690.4	20019
 690.9	20030
 691.4	20026
 691.9	20055
 692.4	20007
 693.0	20081
 693.5	20052
 694.0	20032
 694.5	20027
 695.1	20007
 695.6	19976
 696.1	20040
 696.6	20027
 697.1	20039
 697.7	20069
 698.2	20003
 698.7	20024
 699.2	19991
 699.7	19991
 700.3	19973
 700.8	19956
 701.3	20063
 701.8	20021
 702.3	19972
 702.8	19979
 703.4	19953
 703.9	19963
 704.4	19965
 704.9	19924
 705.4	19934
 706.0	20032
 706.5	20015
 707.0	19933
 707.5	19922
 708.0	19953
 708.5	19908
 709.1	19979
 709.6	19942
 710.1	19914
 710.6	19891
 711.1	19903
 711.7	19920
 712.2	19925
 712.7	19935
 713.2	19912
 713.7	19919
 714.2	19883
 714.8	19951
 715.3	19906
 715.8	19914
 716.3	19925
 716.8	19841
 717.3	19825
 717.8	19932
 718.4	19945
 718.9	19882
 719.4	19953
 719.9	19882
 720.4	19918
 720.9	19924
 721.4	19921
 722.0	19930
 722.5	19926
 723.0	19913
 723.5	19920
 724.0	19884
 724.5	19881
 725.0	19896
 725.6	19831
 726.1	19885
 726.6	19995
 727.1	19927
 727.6	19965
 728.1	19983
 728.6	19946
 729.1	19933
 729.7	19917
 730.2	19951
 730.7	19981
 731.2	20003
 731.7	19995
 732.2	19996
 732.7	19981
 733.2	20024
 733.8	19993
 734.3	20017
 734.8	19987
 735.3	20006
 735.8	19987
 736.3	19965
 736.8	19995
 737.3	20035
 737.8	19979
 738.4	19985
 738.9	19942
 739.4	20015
 739.9	19998
 740.4	20003
 740.9	19997
 741.4	19993
 741.9	19989
 742.4	20003
 742.9	19991
 743.4	20072
 744.0	19993
 744.5	19989
 745.0	20005
 745.5	20074
 746.0	20049
 746.5	20053
 747.0	20006
 747.5	19997
 748.0	19966
 748.5	19988
 749.0	19997
 749.5	20080
 750.0	19923
 750.5	19989
 751.1	19998
 751.6	19995
 752.1	19985
 752.6	19952
 753.1	19985
 753.6	19924
 754.1	19905
 754.6	19945
 755.1	19906
 755.6	19917
 756.1	19841
 756.6	19933
 757.1	19903
 757.6	19886
 758.1	19860
 758.6	19876
 759.1	19812
 759.6	19846
 760.1	19791
 760.7	19767
 761.2	19842
 761.7	19788
 762.2	19773
 762.7	19825
 763.2	19687
 763.7	19775
 764.2	19715
 764.7	19721
 765.2	19758
 765.7	19728
 766.2	19686
 766.7	19731
 767.2	19693
 767.7	19695
 768.2	19677
 768.7	19649
 769.2	19641
 769.7	19689
 770.2	19660
 770.7	19664
 771.2	19645
 771.7	19620
 772.2	19634
 772.7	19682
 773.2	19662
 773.7	19617
 774.2	19566
 774.7	19619
 775.2	19615
 775.7	19588
 776.2	19581
 776.7	19604
 777.2	19539
 777.7	19611
 778.2	19595
 778.7	19631
 779.2	19641
 779.7	19672
 780.2	19522
 780.7	19587
 781.2	19599
 781.7	19657
 782.2	19585
 782.6	19657
 783.1	19662
 783.6	19631
 784.1	19601
 784.6	19589
 785.1	19598
 785.6	19590
 786.1	19625
 786.6	19640
 787.1	19585
 787.6	19589
 788.1	19581
 788.6	19573
 789.1	19571
 789.6	19611
 790.1	19619
 790.6	19621
 791.1	19531
 791.6	19535
 792.0	19558
 792.5	19598
 793.0	19579
 793.5	19575
 794.0	19513
 794.5	19599
 795.0	19589
 795.5	19555
 796.0	19569
 796.5	19520
 797.0	19556
 797.5	19591
 798.0	19455
 798.4	19497
 798.9	19487
 799.4	19503
 799.9	19505
 800.4	19389
 800.9	19478
 801.4	19537
 801.9	19500
 802.4	19441
 802.9	19502
 803.3	19503
 803.8	19468
 804.3	19419
 804.8	19482
 805.3	19437
 805.8	19429
 806.3	19426
 806.8	19411
 807.2	19399
 807.7	19383
 808.2	19411
 808.7	19339
 809.2	19345
 809.7	19282
 810.2	19350
 810.7	19290
 811.1	19306
 811.6	19308
 812.1	19267
 812.6	19229
 813.1	19274
 813.6	19295
 814.1	19271
 814.5	19237
 815.0	19252
 815.5	19219
 816.0	19181
 816.5	19249
 817.0	19199
 817.4	19183
 817.9	19215
 818.4	19163
 818.9	19231
 819.4	19187
 819.9	19168
 820.3	19143
 820.8	19149
 821.3	19145
 821.8	19151
 822.3	19116
 822.7	19096
 823.2	19151
 823.7	19101
 824.2	19103
 824.7	19086
 825.2	19106
 825.6	19089
 826.1	19078
 826.6	19127
 827.1	19118
 827.6	19110
 828.0	19054
 828.5	19027
 829.0	19063
 829.5	19015
 829.9	19024
 830.4	19069
 830.9	19057
 831.4	19074
 831.9	19043
 832.3	19119
 832.8	19071
 833.3	19064
 833.8	19140
 834.2	19126
 834.7	18983
 835.2	19077
 835.7	19082
 836.1	19066
 836.6	19049
 837.1	19061
 837.6	19071
 838.0	19104
 838.5	19126
 839.0	19127
 839.5	19117
 839.9	19043
 840.4	19050
 840.9	19012
 841.4	19059
 841.8	19073
 842.3	19085
 842.8	19109
 843.3	19106
 843.7	19006
 844.2	18998
 844.7	19083
 845.1	19057
 845.6	18981
 846.1	19002
 846.6	19038
 847.0	18942
 847.5	18989
 848.0	18973
 848.4	19011
 848.9	18985
 849.4	18969
 849.8	18983
 850.3	18983
 850.8	19031
 851.3	18989
 851.7	18992
 852.2	18995
 852.7	18988
 853.1	18970
 853.6	18918
 854.1	18964
 854.5	18933
 855.0	18921
 855.5	18913
 855.9	18975
 856.4	18972
 856.9	18875
 857.3	18933
 857.8	18914
 858.3	18947
 858.7	18905
 859.2	18920
 859.7	18921
 860.1	18972
 860.6	18948
 861.1	18894
 861.5	18935
 862.0	18951
 862.4	18913
 862.9	18880
 863.4	18925
 863.8	18924
 864.3	18925
 864.8	18846
 865.2	18898
 865.7	18919
 866.1	18930
 866.6	18855
 867.1	18929
 867.5	18910
 868.0	18887
 868.5	18841
 868.9	18859
 869.4	18953
 869.8	18909
 870.3	18865
 870.8	18933
 871.2	18892
 871.7	18881
 872.1	18829
 872.6	18884
 873.0	18861
 873.5	18940
 874.0	18923
 874.4	18815
 874.9	18851
 875.3	18806
 875.8	18719
 876.2	18533
 876.7	18406
 877.2	18105
 877.6	17735
 878.1	17377
