#xlabel Wavelength (nm)
#ylabel Spectrometer Array Counts
#title Exposure time is 9300 ms
## lambda	counts
 349.8	16783
 350.3	17034
 350.8	17266
 351.3	17444
 351.9	17543
 352.4	17657
 352.9	17746
 353.4	17720
 354.0	17725
 354.5	17772
 355.0	17786
 355.5	17805
 356.0	17768
 356.6	17741
 357.1	17785
 357.6	17772
 358.1	17796
 358.7	17737
 359.2	17759
 359.7	17775
 360.2	17810
 360.8	17784
 361.3	17880
 361.8	17826
 362.3	17860
 362.9	17825
 363.4	17902
 363.9	17900
 364.4	17931
 364.9	17849
 365.5	17924
 366.0	17902
 366.5	17867
 367.0	17915
 367.6	17939
 368.1	17943
 368.6	17886
 369.1	17941
 369.7	18001
 370.2	17931
 370.7	17928
 371.2	17984
 371.8	18040
 372.3	17966
 372.8	18041
 373.3	18059
 373.9	18019
 374.4	18032
 374.9	18086
 375.5	17999
 376.0	18121
 376.5	18087
 377.0	18122
 377.6	18073
 378.1	18153
 378.6	18104
 379.1	18117
 379.7	18110
 380.2	18188
 380.7	18192
 381.2	18155
 381.8	18155
 382.3	18203
 382.8	18197
 383.4	18243
 383.9	18203
 384.4	18350
 384.9	18266
 385.5	18293
 386.0	18297
 386.5	18369
 387.1	18317
 387.6	18332
 388.1	18346
 388.6	18367
 389.2	18367
 389.7	18401
 390.2	18388
 390.8	18484
 391.3	18473
 391.8	18483
 392.3	18486
 392.9	18490
 393.4	18499
 393.9	18587
 394.5	18605
 395.0	18567
 395.5	18604
 396.0	18613
 396.6	18596
 397.1	18689
 397.6	18701
 398.2	18704
 398.7	18712
 399.2	18806
 399.8	18695
 400.3	18760
 400.8	18807
 401.3	18791
 401.9	18813
 402.4	18837
 402.9	18837
 403.5	18874
 404.0	18877
 404.5	18845
 405.1	18868
 405.6	18977
 406.1	18962
 406.7	18992
 407.2	19016
 407.7	19113
 408.2	19119
 408.8	19143
 409.3	19187
 409.8	19247
 410.4	19231
 410.9	19247
 411.4	19223
 412.0	19297
 412.5	19355
 413.0	19329
 413.6	19379
 414.1	19359
 414.6	19403
 415.2	19457
 415.7	19407
 416.2	19476
 416.8	19472
 417.3	19472
 417.8	19509
 418.4	19605
 418.9	19565
 419.4	19706
 420.0	19610
 420.5	19688
 421.0	19647
 421.5	19738
 422.1	19736
 422.6	19799
 423.1	19826
 423.7	19821
 424.2	19809
 424.7	19862
 425.3	19845
 425.8	19875
 426.3	19880
 426.9	19949
 427.4	19903
 427.9	20025
 428.5	19984
 429.0	20040
 429.6	20025
 430.1	20127
 430.6	20150
 431.2	20129
 431.7	20248
 432.2	20250
 432.8	20269
 433.3	20397
 433.8	20436
 434.4	20443
 434.9	20483
 435.4	20566
 436.0	20569
 436.5	20590
 437.0	20683
 437.6	20683
 438.1	20743
 438.6	20767
 439.2	20800
 439.7	20804
 440.2	20759
 440.8	20789
 441.3	20801
 441.8	20805
 442.4	20772
 442.9	20801
 443.5	20843
 444.0	20838
 444.5	20867
 445.1	20795
 445.6	20845
 446.1	20885
 446.7	20926
 447.2	20961
 447.7	20973
 448.3	21070
 448.8	21069
 449.3	21139
 449.9	21133
 450.4	21276
 450.9	21357
 451.5	21409
 452.0	21431
 452.6	21492
 453.1	21595
 453.6	21650
 454.2	21598
 454.7	21705
 455.2	21767
 455.8	21845
 456.3	21819
 456.8	21969
 457.4	21923
 457.9	21951
 458.5	22007
 459.0	21979
 459.5	22033
 460.1	21990
 460.6	22043
 461.1	22038
 461.7	22083
 462.2	22043
 462.7	22076
 463.3	22017
 463.8	22090
 464.4	22161
 464.9	22124
 465.4	22199
 466.0	22125
 466.5	22213
 467.0	22181
 467.6	22266
 468.1	22381
 468.7	22339
 469.2	22312
 469.7	22437
 470.3	22451
 470.8	22517
 471.3	22541
 471.9	22540
 472.4	22629
 473.0	22693
 473.5	22743
 474.0	22773
 474.6	22814
 475.1	22843
 475.6	22937
 476.2	22977
 476.7	22979
 477.3	23067
 477.8	23037
 478.3	22997
 478.9	23210
 479.4	23141
 479.9	23186
 480.5	23197
 481.0	23256
 481.6	23316
 482.1	23411
 482.6	23419
 483.2	23469
 483.7	23603
 484.2	23582
 484.8	23473
 485.3	23591
 485.9	23692
 486.4	23690
 486.9	23749
 487.5	23733
 488.0	23775
 488.6	23861
 489.1	23898
 489.6	23973
 490.2	23986
 490.7	23977
 491.2	23955
 491.8	24029
 492.3	23997
 492.9	24053
 493.4	24071
 493.9	24087
 494.5	24093
 495.0	24150
 495.6	24078
 496.1	24079
 496.6	24132
 497.2	24053
 497.7	24030
 498.2	24097
 498.8	24113
 499.3	24036
 499.9	24099
 500.4	24101
 500.9	24104
 501.5	24125
 502.0	24229
 502.6	24239
 503.1	24360
 503.6	24368
 504.2	24375
 504.7	24431
 505.2	24549
 505.8	24595
 506.3	24741
 506.9	24822
 507.4	24868
 507.9	24907
 508.5	25020
 509.0	25142
 509.6	25276
 510.1	25319
 510.6	25415
 511.2	25508
 511.7	25559
 512.2	25677
 512.8	25752
 513.3	25774
 513.9	25803
 514.4	25898
 514.9	25997
 515.5	25913
 516.0	26002
 516.6	25974
 517.1	26007
 517.6	25977
 518.2	25939
 518.7	25864
 519.3	25887
 519.8	25886
 520.3	25855
 520.9	25785
 521.4	25759
 521.9	25781
 522.5	25675
 523.0	25661
 523.6	25676
 524.1	25533
 524.6	25562
 525.2	25579
 525.7	25627
 526.3	25573
 526.8	25672
 527.3	25649
 527.9	25696
 528.4	25714
 528.9	25809
 529.5	25857
 530.0	25898
 530.6	25992
 531.1	26053
 531.6	26038
 532.2	26206
 532.7	26245
 533.3	26357
 533.8	26540
 534.3	26655
 534.9	26721
 535.4	26755
 536.0	26901
 536.5	27005
 537.0	27045
 537.6	27135
 538.1	27245
 538.6	27329
 539.2	27336
 539.7	27411
 540.3	27542
 540.8	27551
 541.3	27547
 541.9	27608
 542.4	27639
 543.0	27715
 543.5	27691
 544.0	27675
 544.6	27712
 545.1	27737
 545.6	27754
 546.2	27750
 546.7	27655
 547.3	27713
 547.8	27678
 548.3	27703
 548.9	27615
 549.4	27608
 550.0	27567
 550.5	27621
 551.0	27648
 551.6	27602
 552.1	27604
 552.6	27608
 553.2	27561
 553.7	27547
 554.3	27585
 554.8	27654
 555.3	27527
 555.9	27594
 556.4	27587
 556.9	27711
 557.5	27751
 558.0	27737
 558.6	27745
 559.1	27823
 559.6	27842
 560.2	27881
 560.7	27917
 561.3	27919
 561.8	27928
 562.3	28073
 562.9	28084
 563.4	28152
 563.9	28162
 564.5	28198
 565.0	28207
 565.6	28246
 566.1	28267
 566.6	28276
 567.2	28279
 567.7	28381
 568.2	28328
 568.8	28341
 569.3	28331
 569.9	28394
 570.4	28389
 570.9	28381
 571.5	28386
 572.0	28400
 572.5	28463
 573.1	28435
 573.6	28498
 574.1	28504
 574.7	28526
 575.2	28535
 575.8	28595
 576.3	28694
 576.8	28697
 577.4	28734
 577.9	28781
 578.4	28797
 579.0	28847
 579.5	28977
 580.1	28945
 580.6	29007
 581.1	29119
 581.7	29183
 582.2	29170
 582.7	29241
 583.3	29311
 583.8	29329
 584.3	29315
 584.9	29399
 585.4	29431
 586.0	29438
 586.5	29507
 587.0	29503
 587.6	29595
 588.1	29574
 588.6	29647
 589.2	29615
 589.7	29647
 590.2	29637
 590.8	29628
 591.3	29647
 591.9	29591
 592.4	29631
 592.9	29554
 593.5	29519
 594.0	29487
 594.5	29478
 595.1	29422
 595.6	29361
 596.1	29389
 596.7	29320
 597.2	29325
 597.7	29235
 598.3	29222
 598.8	29173
 599.3	29137
 599.9	29079
 600.4	29051
 601.0	29033
 601.5	29003
 602.0	28975
 602.6	28925
 603.1	28945
 603.6	28950
 604.2	29027
 604.7	28965
 605.2	29033
 605.8	28971
 606.3	29014
 606.8	29096
 607.4	29112
 607.9	29178
 608.4	29161
 609.0	29225
 609.5	29295
 610.0	29304
 610.6	29425
 611.1	29401
 611.6	29476
 612.2	29518
 612.7	29611
 613.2	29655
 613.8	29646
 614.3	29738
 614.8	29821
 615.4	29829
 615.9	29981
 616.4	30093
 617.0	30111
 617.5	30245
 618.0	30335
 618.6	30361
 619.1	30473
 619.6	30601
 620.2	30705
 620.7	30845
 621.2	30893
 621.8	30998
 622.3	31097
 622.8	31137
 623.4	31223
 623.9	31324
 624.4	31348
 625.0	31378
 625.5	31397
 626.0	31424
 626.6	31481
 627.1	31460
 627.6	31419
 628.2	31387
 628.7	31426
 629.2	31403
 629.8	31399
 630.3	31377
 630.8	31337
 631.4	31265
 631.9	31250
 632.4	31102
 632.9	31058
 633.5	31008
 634.0	30923
 634.5	30919
 635.1	30818
 635.6	30759
 636.1	30690
 636.7	30663
 637.2	30607
 637.7	30473
 638.3	30518
 638.8	30463
 639.3	30439
 639.8	30347
 640.4	30331
 640.9	30321
 641.4	30223
 642.0	30174
 642.5	30174
 643.0	30135
 643.6	30201
 644.1	30146
 644.6	30161
 645.1	30173
 645.7	30174
 646.2	30131
 646.7	30160
 647.3	30193
 647.8	30214
 648.3	30201
 648.9	30262
 649.4	30203
 649.9	30284
 650.4	30326
 651.0	30394
 651.5	30431
 652.0	30511
 652.6	30507
 653.1	30618
 653.6	30575
 654.1	30663
 654.7	30669
 655.2	30785
 655.7	30855
 656.3	30896
 656.8	30895
 657.3	30984
 657.8	30975
 658.4	31018
 658.9	31065
 659.4	31154
 659.9	31180
 660.5	31181
 661.0	31241
 661.5	31298
 662.1	31281
 662.6	31310
 663.1	31288
 663.6	31370
 664.2	31339
 664.7	31319
 665.2	31267
 665.7	31372
 666.3	31336
 666.8	31328
 667.3	31330
 667.8	31296
 668.4	31307
 668.9	31306
 669.4	31267
 669.9	31269
 670.5	31201
 671.0	31207
 671.5	31148
 672.0	31179
 672.6	31154
 673.1	31179
 673.6	31080
 674.1	31092
 674.7	31068
 675.2	31089
 675.7	30959
 676.2	30931
 676.8	30983
 677.3	30971
 677.8	30893
 678.3	30963
 678.9	30887
 679.4	30815
 679.9	30866
 680.4	30841
 681.0	30801
 681.5	30808
 682.0	30753
 682.5	30786
 683.1	30683
 683.6	30697
 684.1	30640
 684.6	30715
 685.1	30661
 685.7	30662
 686.2	30639
 686.7	30596
 687.2	30584
 687.8	30638
 688.3	30578
 688.8	30595
 689.3	30542
 689.8	30569
 690.4	30551
 690.9	30574
 691.4	30593
 691.9	30593
 692.4	30567
 693.0	30637
 693.5	30602
 694.0	30596
 694.5	30587
 695.1	30577
 695.6	30544
 696.1	30609
 696.6	30597
 697.1	30618
 697.7	30643
 698.2	30573
 698.7	30593
 699.2	30561
 699.7	30569
 700.3	30517
 700.8	30495
 701.3	30579
 701.8	30531
 702.3	30470
 702.8	30467
 703.4	30449
 703.9	30416
 704.4	30375
 704.9	30335
 705.4	30319
 706.0	30367
 706.5	30335
 707.0	30236
 707.5	30208
 708.0	30212
 708.5	30143
 709.1	30179
 709.6	30129
 710.1	30068
 710.6	30024
 711.1	30000
 711.7	29999
 712.2	29964
 712.7	29964
 713.2	29915
 713.7	29911
 714.2	29859
 714.8	29925
 715.3	29862
 715.8	29851
 716.3	29853
 716.8	29775
 717.3	29768
 717.8	29847
 718.4	29858
 718.9	29801
 719.4	29884
 719.9	29801
 720.4	29843
 720.9	29863
 721.4	29854
 722.0	29890
 722.5	29879
 723.0	29880
 723.5	29897
 724.0	29883
 724.5	29867
 725.0	29913
 725.6	29858
 726.1	29919
 726.6	30019
 727.1	29966
 727.6	30011
 728.1	30038
 728.6	30000
 729.1	29999
 729.7	29983
 730.2	30017
 730.7	30042
 731.2	30071
 731.7	30063
 732.2	30078
 732.7	30047
 733.2	30089
 733.8	30067
 734.3	30100
 734.8	30089
 735.3	30127
 735.8	30133
 736.3	30131
 736.8	30181
 737.3	30239
 737.8	30193
 738.4	30204
 738.9	30175
 739.4	30258
 739.9	30247
 740.4	30270
 740.9	30254
 741.4	30252
 741.9	30245
 742.4	30257
 742.9	30241
 743.4	30301
 744.0	30208
 744.5	30195
 745.0	30187
 745.5	30239
 746.0	30197
 746.5	30203
 747.0	30127
 747.5	30096
 748.0	30066
 748.5	30074
 749.0	30055
 749.5	30110
 750.0	29943
 750.5	29953
 751.1	29935
 751.6	29912
 752.1	29865
 752.6	29816
 753.1	29825
 753.6	29747
 754.1	29689
 754.6	29690
 755.1	29623
 755.6	29592
 756.1	29489
 756.6	29531
 757.1	29479
 757.6	29430
 758.1	29357
 758.6	29319
 759.1	29218
 759.6	29213
 760.1	29122
 760.7	29051
 761.2	29093
 761.7	29020
 762.2	28963
 762.7	28963
 763.2	28823
 763.7	28850
 764.2	28745
 764.7	28716
 765.2	28689
 765.7	28615
 766.2	28541
 766.7	28534
 767.2	28442
 767.7	28392
 768.2	28341
 768.7	28269
 769.2	28218
 769.7	28218
 770.2	28159
 770.7	28133
 771.2	28070
 771.7	28028
 772.2	28015
 772.7	28023
 773.2	27981
 773.7	27907
 774.2	27841
 774.7	27850
 775.2	27807
 775.7	27775
 776.2	27742
 776.7	27749
 777.2	27667
 777.7	27707
 778.2	27673
 778.7	27695
 779.2	27685
 779.7	27697
 780.2	27541
 780.7	27592
 781.2	27574
 781.7	27610
 782.2	27532
 782.6	27586
 783.1	27570
 783.6	27531
 784.1	27483
 784.6	27471
 785.1	27474
 785.6	27466
 786.1	27475
 786.6	27479
 787.1	27419
 787.6	27397
 788.1	27371
 788.6	27353
 789.1	27323
 789.6	27333
 790.1	27326
 790.6	27303
 791.1	27198
 791.6	27181
 792.0	27165
 792.5	27174
 793.0	27127
 793.5	27090
 794.0	27010
 794.5	27058
 795.0	26995
 795.5	26954
 796.0	26929
 796.5	26847
 797.0	26831
 797.5	26836
 798.0	26653
 798.4	26643
 798.9	26593
 799.4	26557
 799.9	26515
 800.4	26354
 800.9	26404
 801.4	26401
 801.9	26307
 802.4	26189
 802.9	26197
 803.3	26143
 803.8	26062
 804.3	25972
 804.8	25977
 805.3	25887
 805.8	25810
 806.3	25759
 806.8	25697
 807.2	25629
 807.7	25561
 808.2	25535
 808.7	25422
 809.2	25374
 809.7	25264
 810.2	25285
 810.7	25174
 811.1	25139
 811.6	25095
 812.1	25007
 812.6	24923
 813.1	24929
 813.6	24901
 814.1	24851
 814.5	24770
 815.0	24747
 815.5	24665
 816.0	24593
 816.5	24610
 817.0	24527
 817.4	24476
 817.9	24482
 818.4	24377
 818.9	24417
 819.4	24342
 819.9	24292
 820.3	24239
 820.8	24208
 821.3	24177
 821.8	24151
 822.3	24079
 822.7	24034
 823.2	24067
 823.7	24003
 824.2	23977
 824.7	23929
 825.2	23919
 825.6	23878
 826.1	23837
 826.6	23879
 827.1	23835
 827.6	23814
 828.0	23741
 828.5	23694
 829.0	23715
 829.5	23647
 829.9	23633
 830.4	23659
 830.9	23620
 831.4	23632
 831.9	23577
 832.3	23629
 832.8	23556
 833.3	23547
 833.8	23607
 834.2	23581
 834.7	23425
 835.2	23503
 835.7	23489
 836.1	23464
 836.6	23439
 837.1	23425
 837.6	23427
 838.0	23438
 838.5	23443
 839.0	23434
 839.5	23418
 839.9	23331
 840.4	23330
 840.9	23275
 841.4	23310
 841.8	23314
 842.3	23311
 842.8	23321
 843.3	23299
 843.7	23195
 844.2	23173
 844.7	23237
 845.1	23195
 845.6	23116
 846.1	23119
 846.6	23144
 847.0	23041
 847.5	23066
 848.0	23029
 848.4	23055
 848.9	23006
 849.4	22962
 849.8	22966
 850.3	22946
 850.8	22981
 851.3	22925
 851.7	22904
 852.2	22889
 852.7	22863
 853.1	22826
 853.6	22755
 854.1	22780
 854.5	22726
 855.0	22697
 855.5	22667
 855.9	22707
 856.4	22675
 856.9	22575
 857.3	22605
 857.8	22544
 858.3	22555
 858.7	22489
 859.2	22495
 859.7	22489
 860.1	22531
 860.6	22493
 861.1	22414
 861.5	22435
 862.0	22423
 862.4	22370
 862.9	22315
 863.4	22347
 863.8	22334
 864.3	22306
 864.8	22208
 865.2	22242
 865.7	22237
 866.1	22235
 866.6	22147
 867.1	22196
 867.5	22159
 868.0	22122
 868.5	22055
 868.9	22042
 869.4	22109
 869.8	22049
 870.3	21991
 870.8	22042
 871.2	21988
 871.7	21960
 872.1	21889
 872.6	21921
 873.0	21879
 873.5	21935
 874.0	21901
 874.4	21766
 874.9	21775
 875.3	21709
 875.8	21593
 876.2	21375
 876.7	21198
 877.2	20847
 877.6	20413
 878.1	19958
