#xlabel Wavelength (nm)
#ylabel Spectrometer Array Counts
#title Exposure time is 9300 ms
## lambda	counts
 349.8	16635
 350.3	16883
 350.8	17119
 351.3	17293
 351.9	17389
 352.4	17497
 352.9	17576
 353.4	17544
 354.0	17551
 354.5	17599
 355.0	17608
 355.5	17618
 356.0	17582
 356.6	17552
 357.1	17589
 357.6	17576
 358.1	17602
 358.7	17541
 359.2	17558
 359.7	17575
 360.2	17602
 360.8	17575
 361.3	17665
 361.8	17611
 362.3	17643
 362.9	17599
 363.4	17670
 363.9	17668
 364.4	17695
 364.9	17613
 365.5	17683
 366.0	17659
 366.5	17619
 367.0	17661
 367.6	17688
 368.1	17681
 368.6	17622
 369.1	17674
 369.7	17722
 370.2	17653
 370.7	17644
 371.2	17694
 371.8	17745
 372.3	17667
 372.8	17736
 373.3	17751
 373.9	17704
 374.4	17713
 374.9	17758
 375.5	17660
 376.0	17778
 376.5	17744
 377.0	17763
 377.6	17714
 378.1	17787
 378.6	17724
 379.1	17734
 379.7	17715
 380.2	17781
 380.7	17783
 381.2	17743
 381.8	17729
 382.3	17769
 382.8	17756
 383.4	17799
 383.9	17749
 384.4	17891
 384.9	17808
 385.5	17830
 386.0	17825
 386.5	17894
 387.1	17831
 387.6	17845
 388.1	17851
 388.6	17867
 389.2	17853
 389.7	17877
 390.2	17856
 390.8	17937
 391.3	17913
 391.8	17911
 392.3	17899
 392.9	17896
 393.4	17891
 393.9	17959
 394.5	17962
 395.0	17909
 395.5	17935
 396.0	17936
 396.6	17906
 397.1	17991
 397.6	17989
 398.2	17986
 398.7	17988
 399.2	18075
 399.8	17954
 400.3	18012
 400.8	18057
 401.3	18039
 401.9	18055
 402.4	18068
 402.9	18055
 403.5	18083
 404.0	18070
 404.5	18029
 405.1	18035
 405.6	18125
 406.1	18099
 406.7	18107
 407.2	18118
 407.7	18197
 408.2	18188
 408.8	18192
 409.3	18224
 409.8	18263
 410.4	18235
 410.9	18232
 411.4	18189
 412.0	18248
 412.5	18298
 413.0	18255
 413.6	18291
 414.1	18256
 414.6	18294
 415.2	18331
 415.7	18273
 416.2	18323
 416.8	18300
 417.3	18294
 417.8	18319
 418.4	18400
 418.9	18340
 419.4	18469
 420.0	18363
 420.5	18423
 421.0	18370
 421.5	18450
 422.1	18428
 422.6	18481
 423.1	18499
 423.7	18478
 424.2	18466
 424.7	18502
 425.3	18474
 425.8	18494
 426.3	18486
 426.9	18545
 427.4	18486
 427.9	18591
 428.5	18542
 429.0	18577
 429.6	18544
 430.1	18625
 430.6	18618
 431.2	18566
 431.7	18664
 432.2	18636
 432.8	18621
 433.3	18728
 433.8	18735
 434.4	18707
 434.9	18726
 435.4	18777
 436.0	18762
 436.5	18755
 437.0	18833
 437.6	18807
 438.1	18857
 438.6	18862
 439.2	18887
 439.7	18876
 440.2	18834
 440.8	18855
 441.3	18861
 441.8	18861
 442.4	18829
 442.9	18854
 443.5	18893
 444.0	18879
 444.5	18906
 445.1	18833
 445.6	18870
 446.1	18886
 446.7	18902
 447.2	18927
 447.7	18919
 448.3	18984
 448.8	18957
 449.3	18995
 449.9	18951
 450.4	19056
 450.9	19093
 451.5	19107
 452.0	19082
 452.6	19122
 453.1	19169
 453.6	19188
 454.2	19096
 454.7	19173
 455.2	19197
 455.8	19245
 456.3	19193
 456.8	19322
 457.4	19257
 457.9	19263
 458.5	19311
 459.0	19277
 459.5	19317
 460.1	19272
 460.6	19315
 461.1	19303
 461.7	19346
 462.2	19298
 462.7	19339
 463.3	19272
 463.8	19341
 464.4	19407
 464.9	19349
 465.4	19415
 466.0	19317
 466.5	19397
 467.0	19341
 467.6	19407
 468.1	19492
 468.7	19430
 469.2	19375
 469.7	19466
 470.3	19459
 470.8	19495
 471.3	19486
 471.9	19453
 472.4	19504
 473.0	19551
 473.5	19571
 474.0	19574
 474.6	19586
 475.1	19588
 475.6	19661
 476.2	19675
 476.7	19661
 477.3	19717
 477.8	19663
 478.3	19605
 478.9	19799
 479.4	19693
 479.9	19716
 480.5	19711
 481.0	19735
 481.6	19764
 482.1	19835
 482.6	19821
 483.2	19825
 483.7	19949
 484.2	19891
 484.8	19752
 485.3	19850
 485.9	19929
 486.4	19890
 486.9	19916
 487.5	19889
 488.0	19903
 488.6	19962
 489.1	19980
 489.6	20035
 490.2	20033
 490.7	19995
 491.2	19968
 491.8	20026
 492.3	19985
 492.9	20030
 493.4	20039
 493.9	20053
 494.5	20059
 495.0	20122
 495.6	20041
 496.1	20051
 496.6	20105
 497.2	20030
 497.7	19993
 498.2	20075
 498.8	20094
 499.3	20013
 499.9	20069
 500.4	20066
 500.9	20062
 501.5	20056
 502.0	20131
 502.6	20105
 503.1	20202
 503.6	20177
 504.2	20140
 504.7	20163
 505.2	20238
 505.8	20247
 506.3	20325
 506.9	20347
 507.4	20335
 507.9	20329
 508.5	20380
 509.0	20436
 509.6	20511
 510.1	20503
 510.6	20553
 511.2	20586
 511.7	20587
 512.2	20663
 512.8	20692
 513.3	20671
 513.9	20669
 514.4	20737
 514.9	20808
 515.5	20715
 516.0	20791
 516.6	20763
 517.1	20809
 517.6	20785
 518.2	20765
 518.7	20699
 519.3	20741
 519.8	20767
 520.3	20756
 520.9	20711
 521.4	20703
 521.9	20753
 522.5	20676
 523.0	20683
 523.6	20714
 524.1	20575
 524.6	20619
 525.2	20642
 525.7	20677
 526.3	20607
 526.8	20697
 527.3	20652
 527.9	20678
 528.4	20670
 528.9	20735
 529.5	20765
 530.0	20755
 530.6	20814
 531.1	20831
 531.6	20766
 532.2	20893
 532.7	20871
 533.3	20923
 533.8	21056
 534.3	21106
 534.9	21121
 535.4	21095
 536.0	21173
 536.5	21231
 537.0	21209
 537.6	21252
 538.1	21309
 538.6	21345
 539.2	21309
 539.7	21334
 540.3	21441
 540.8	21411
 541.3	21384
 541.9	21417
 542.4	21431
 543.0	21496
 543.5	21460
 544.0	21439
 544.6	21488
 545.1	21492
 545.6	21525
 546.2	21511
 546.7	21427
 547.3	21485
 547.8	21454
 548.3	21503
 548.9	21418
 549.4	21415
 550.0	21386
 550.5	21445
 551.0	21480
 551.6	21430
 552.1	21446
 552.6	21442
 553.2	21420
 553.7	21399
 554.3	21436
 554.8	21501
 555.3	21365
 555.9	21433
 556.4	21397
 556.9	21501
 557.5	21525
 558.0	21490
 558.6	21473
 559.1	21549
 559.6	21542
 560.2	21551
 560.7	21557
 561.3	21541
 561.8	21526
 562.3	21646
 562.9	21635
 563.4	21672
 563.9	21671
 564.5	21685
 565.0	21669
 565.6	21695
 566.1	21699
 566.6	21706
 567.2	21695
 567.7	21798
 568.2	21713
 568.8	21730
 569.3	21705
 569.9	21777
 570.4	21759
 570.9	21738
 571.5	21733
 572.0	21728
 572.5	21789
 573.1	21740
 573.6	21793
 574.1	21790
 574.7	21793
 575.2	21771
 575.8	21809
 576.3	21888
 576.8	21868
 577.4	21882
 577.9	21909
 578.4	21875
 579.0	21902
 579.5	21998
 580.1	21934
 580.6	21953
 581.1	22044
 581.7	22064
 582.2	22011
 582.7	22062
 583.3	22113
 583.8	22094
 584.3	22055
 584.9	22122
 585.4	22134
 586.0	22117
 586.5	22153
 587.0	22122
 587.6	22195
 588.1	22154
 588.6	22226
 589.2	22181
 589.7	22194
 590.2	22188
 590.8	22174
 591.3	22205
 591.9	22147
 592.4	22205
 592.9	22136
 593.5	22124
 594.0	22114
 594.5	22121
 595.1	22095
 595.6	22063
 596.1	22115
 596.7	22065
 597.2	22099
 597.7	22031
 598.3	22036
 598.8	21998
 599.3	22002
 599.9	21975
 600.4	21961
 601.0	21961
 601.5	21945
 602.0	21935
 602.6	21884
 603.1	21895
 603.6	21903
 604.2	21993
 604.7	21904
 605.2	21972
 605.8	21898
 606.3	21922
 606.8	21997
 607.4	21981
 607.9	22022
 608.4	21981
 609.0	22017
 609.5	22063
 610.0	22049
 610.6	22147
 611.1	22082
 611.6	22120
 612.2	22123
 612.7	22195
 613.2	22191
 613.8	22139
 614.3	22187
 614.8	22239
 615.4	22195
 615.9	22291
 616.4	22363
 617.0	22327
 617.5	22427
 618.0	22457
 618.6	22403
 619.1	22459
 619.6	22550
 620.2	22561
 620.7	22636
 621.2	22621
 621.8	22682
 622.3	22717
 622.8	22698
 623.4	22739
 623.9	22813
 624.4	22795
 625.0	22797
 625.5	22809
 626.0	22824
 626.6	22876
 627.1	22862
 627.6	22817
 628.2	22779
 628.7	22819
 629.2	22795
 629.8	22818
 630.3	22824
 630.8	22799
 631.4	22765
 631.9	22785
 632.4	22667
 632.9	22673
 633.5	22660
 634.0	22605
 634.5	22669
 635.1	22596
 635.6	22563
 636.1	22534
 636.7	22564
 637.2	22547
 637.7	22445
 638.3	22534
 638.8	22518
 639.3	22517
 639.8	22463
 640.4	22468
 640.9	22483
 641.4	22389
 642.0	22372
 642.5	22379
 643.0	22351
 643.6	22431
 644.1	22387
 644.6	22397
 645.1	22431
 645.7	22407
 646.2	22372
 646.7	22389
 647.3	22427
 647.8	22430
 648.3	22412
 648.9	22451
 649.4	22375
 649.9	22449
 650.4	22463
 651.0	22511
 651.5	22528
 652.0	22579
 652.6	22535
 653.1	22623
 653.6	22546
 654.1	22629
 654.7	22588
 655.2	22673
 655.7	22721
 656.3	22736
 656.8	22694
 657.3	22763
 657.8	22714
 658.4	22723
 658.9	22731
 659.4	22820
 659.9	22821
 660.5	22801
 661.0	22845
 661.5	22895
 662.1	22863
 662.6	22877
 663.1	22845
 663.6	22918
 664.2	22881
 664.7	22851
 665.2	22783
 665.7	22900
 666.3	22869
 666.8	22869
 667.3	22873
 667.8	22835
 668.4	22861
 668.9	22863
 669.4	22839
 669.9	22869
 670.5	22807
 671.0	22822
 671.5	22766
 672.0	22821
 672.6	22824
 673.1	22848
 673.6	22757
 674.1	22787
 674.7	22771
 675.2	22811
 675.7	22682
 676.2	22682
 676.8	22738
 677.3	22750
 677.8	22673
 678.3	22775
 678.9	22705
 679.4	22652
 679.9	22701
 680.4	22706
 681.0	22677
 681.5	22702
 682.0	22669
 682.5	22695
 683.1	22605
 683.6	22647
 684.1	22589
 684.6	22685
 685.1	22627
 685.7	22642
 686.2	22615
 686.7	22581
 687.2	22569
 687.8	22637
 688.3	22572
 688.8	22601
 689.3	22545
 689.8	22576
 690.4	22569
 690.9	22576
 691.4	22582
 691.9	22604
 692.4	22561
 693.0	22629
 693.5	22600
 694.0	22587
 694.5	22583
 695.1	22561
 695.6	22532
 696.1	22595
 696.6	22578
 697.1	22595
 697.7	22623
 698.2	22559
 698.7	22581
 699.2	22543
 699.7	22545
 700.3	22523
 700.8	22506
 701.3	22606
 701.8	22559
 702.3	22507
 702.8	22510
 703.4	22489
 703.9	22485
 704.4	22481
 704.9	22441
 705.4	22443
 706.0	22525
 706.5	22511
 707.0	22421
 707.5	22407
 708.0	22433
 708.5	22378
 709.1	22436
 709.6	22401
 710.1	22366
 710.6	22337
 711.1	22335
 711.7	22353
 712.2	22347
 712.7	22353
 713.2	22333
 713.7	22328
 714.2	22284
 714.8	22358
 715.3	22307
 715.8	22311
 716.3	22317
 716.8	22235
 717.3	22223
 717.8	22324
 718.4	22337
 718.9	22274
 719.4	22348
 719.9	22264
 720.4	22307
 720.9	22315
 721.4	22312
 722.0	22335
 722.5	22322
 723.0	22313
 723.5	22323
 724.0	22294
 724.5	22290
 725.0	22310
 725.6	22246
 726.1	22301
 726.6	22406
 727.1	22349
 727.6	22385
 728.1	22407
 728.6	22367
 729.1	22355
 729.7	22351
 730.2	22370
 730.7	22401
 731.2	22434
 731.7	22417
 732.2	22431
 732.7	22401
 733.2	22445
 733.8	22423
 734.3	22445
 734.8	22419
 735.3	22439
 735.8	22429
 736.3	22411
 736.8	22445
 737.3	22489
 737.8	22443
 738.4	22443
 738.9	22396
 739.4	22483
 739.9	22462
 740.4	22474
 740.9	22463
 741.4	22459
 741.9	22457
 742.4	22474
 742.9	22448
 743.4	22529
 744.0	22451
 744.5	22441
 745.0	22453
 745.5	22526
 746.0	22489
 746.5	22498
 747.0	22445
 747.5	22427
 748.0	22395
 748.5	22411
 749.0	22416
 749.5	22497
 750.0	22335
 750.5	22383
 751.1	22383
 751.6	22384
 752.1	22365
 752.6	22326
 753.1	22349
 753.6	22283
 754.1	22252
 754.6	22291
 755.1	22246
 755.6	22239
 756.1	22161
 756.6	22244
 757.1	22207
 757.6	22191
 758.1	22142
 758.6	22150
 759.1	22077
 759.6	22101
 760.1	22036
 760.7	22001
 761.2	22067
 761.7	22005
 762.2	21983
 762.7	22025
 763.2	21885
 763.7	21955
 764.2	21886
 764.7	21887
 765.2	21903
 765.7	21862
 766.2	21813
 766.7	21845
 767.2	21795
 767.7	21789
 768.2	21760
 768.7	21719
 769.2	21701
 769.7	21739
 770.2	21702
 770.7	21699
 771.2	21676
 771.7	21645
 772.2	21650
 772.7	21679
 773.2	21661
 773.7	21608
 774.2	21555
 774.7	21601
 775.2	21585
 775.7	21561
 776.2	21544
 776.7	21565
 777.2	21494
 777.7	21561
 778.2	21544
 778.7	21574
 779.2	21577
 779.7	21601
 780.2	21445
 780.7	21512
 781.2	21519
 781.7	21579
 782.2	21495
 782.6	21566
 783.1	21566
 783.6	21531
 784.1	21500
 784.6	21484
 785.1	21495
 785.6	21486
 786.1	21512
 786.6	21526
 787.1	21471
 787.6	21465
 788.1	21455
 788.6	21445
 789.1	21433
 789.6	21469
 790.1	21478
 790.6	21470
 791.1	21375
 791.6	21372
 792.0	21389
 792.5	21423
 793.0	21391
 793.5	21391
 794.0	21316
 794.5	21395
 795.0	21371
 795.5	21333
 796.0	21343
 796.5	21281
 797.0	21305
 797.5	21330
 798.0	21186
 798.4	21216
 798.9	21197
 799.4	21197
 799.9	21193
 800.4	21063
 800.9	21144
 801.4	21193
 801.9	21135
 802.4	21064
 802.9	21115
 803.3	21092
 803.8	21054
 804.3	20998
 804.8	21040
 805.3	20990
 805.8	20953
 806.3	20955
 806.8	20917
 807.2	20897
 807.7	20862
 808.2	20880
 808.7	20799
 809.2	20792
 809.7	20721
 810.2	20774
 810.7	20708
 811.1	20708
 811.6	20699
 812.1	20651
 812.6	20598
 813.1	20635
 813.6	20637
 814.1	20613
 814.5	20567
 815.0	20573
 815.5	20526
 816.0	20484
 816.5	20534
 817.0	20477
 817.4	20451
 817.9	20476
 818.4	20407
 818.9	20475
 819.4	20426
 819.9	20399
 820.3	20366
 820.8	20365
 821.3	20354
 821.8	20346
 822.3	20305
 822.7	20281
 823.2	20327
 823.7	20278
 824.2	20275
 824.7	20251
 825.2	20262
 825.6	20234
 826.1	20224
 826.6	20270
 827.1	20252
 827.6	20240
 828.0	20180
 828.5	20145
 829.0	20178
 829.5	20122
 829.9	20129
 830.4	20173
 830.9	20151
 831.4	20171
 831.9	20127
 832.3	20201
 832.8	20145
 833.3	20137
 833.8	20213
 834.2	20197
 834.7	20049
 835.2	20135
 835.7	20138
 836.1	20122
 836.6	20103
 837.1	20111
 837.6	20113
 838.0	20143
 838.5	20159
 839.0	20162
 839.5	20145
 839.9	20073
 840.4	20072
 840.9	20033
 841.4	20079
 841.8	20089
 842.3	20097
 842.8	20115
 843.3	20109
 843.7	20013
 844.2	19997
 844.7	20083
 845.1	20051
 845.6	19975
 846.1	19995
 846.6	20023
 847.0	19923
 847.5	19963
 848.0	19946
 848.4	19986
 848.9	19947
 849.4	19928
 849.8	19939
 850.3	19934
 850.8	19976
 851.3	19937
 851.7	19927
 852.2	19933
 852.7	19919
 853.1	19892
 853.6	19839
 854.1	19882
 854.5	19843
 855.0	19827
 855.5	19816
 855.9	19869
 856.4	19856
 856.9	19760
 857.3	19814
 857.8	19777
 858.3	19809
 858.7	19765
 859.2	19775
 859.7	19774
 860.1	19819
 860.6	19801
 861.1	19738
 861.5	19773
 862.0	19777
 862.4	19737
 862.9	19705
 863.4	19743
 863.8	19741
 864.3	19733
 864.8	19645
 865.2	19692
 865.7	19713
 866.1	19719
 866.6	19639
 867.1	19705
 867.5	19678
 868.0	19663
 868.5	19604
 868.9	19607
 869.4	19695
 869.8	19647
 870.3	19596
 870.8	19661
 871.2	19613
 871.7	19600
 872.1	19547
 872.6	19592
 873.0	19565
 873.5	19637
 874.0	19623
 874.4	19505
 874.9	19537
 875.3	19487
 875.8	19399
 876.2	19211
 876.7	19071
 877.2	18758
 877.6	18369
 878.1	17989
