#xlabel Wavelength (nm)
#ylabel Spectrometer Array Counts
#title Exposure time is 9300 ms
## lambda	counts
 349.8	16622
 350.3	16863
 350.8	17088
 351.3	17258
 351.9	17355
 352.4	17458
 352.9	17540
 353.4	17510
 354.0	17518
 354.5	17570
 355.0	17581
 355.5	17603
 356.0	17565
 356.6	17539
 357.1	17580
 357.6	17565
 358.1	17594
 358.7	17538
 359.2	17554
 359.7	17567
 360.2	17597
 360.8	17565
 361.3	17659
 361.8	17603
 362.3	17633
 362.9	17588
 363.4	17661
 363.9	17659
 364.4	17683
 364.9	17605
 365.5	17668
 366.0	17647
 366.5	17608
 367.0	17657
 367.6	17676
 368.1	17676
 368.6	17614
 369.1	17664
 369.7	17717
 370.2	17640
 370.7	17636
 371.2	17683
 371.8	17731
 372.3	17654
 372.8	17730
 373.3	17737
 373.9	17691
 374.4	17705
 374.9	17748
 375.5	17654
 376.0	17766
 376.5	17735
 377.0	17752
 377.6	17704
 378.1	17769
 378.6	17716
 379.1	17720
 379.7	17710
 380.2	17771
 380.7	17773
 381.2	17731
 381.8	17717
 382.3	17760
 382.8	17742
 383.4	17787
 383.9	17743
 384.4	17882
 384.9	17798
 385.5	17819
 386.0	17812
 386.5	17890
 387.1	17819
 387.6	17837
 388.1	17842
 388.6	17857
 389.2	17841
 389.7	17871
 390.2	17844
 390.8	17928
 391.3	17903
 391.8	17898
 392.3	17887
 392.9	17885
 393.4	17879
 393.9	17951
 394.5	17956
 395.0	17903
 395.5	17924
 396.0	17922
 396.6	17895
 397.1	17982
 397.6	17976
 398.2	17973
 398.7	17978
 399.2	18068
 399.8	17942
 400.3	18008
 400.8	18053
 401.3	18031
 401.9	18039
 402.4	18058
 402.9	18046
 403.5	18073
 404.0	18060
 404.5	18019
 405.1	18024
 405.6	18116
 406.1	18091
 406.7	18101
 407.2	18103
 407.7	18187
 408.2	18181
 408.8	18183
 409.3	18211
 409.8	18251
 410.4	18228
 410.9	18223
 411.4	18186
 412.0	18239
 412.5	18287
 413.0	18247
 413.6	18283
 414.1	18250
 414.6	18284
 415.2	18323
 415.7	18263
 416.2	18315
 416.8	18290
 417.3	18283
 417.8	18304
 418.4	18391
 418.9	18330
 419.4	18459
 420.0	18352
 420.5	18415
 421.0	18362
 421.5	18435
 422.1	18422
 422.6	18471
 423.1	18490
 423.7	18467
 424.2	18453
 424.7	18493
 425.3	18466
 425.8	18485
 426.3	18477
 426.9	18537
 427.4	18478
 427.9	18583
 428.5	18530
 429.0	18568
 429.6	18532
 430.1	18616
 430.6	18609
 431.2	18556
 431.7	18651
 432.2	18627
 432.8	18609
 433.3	18716
 433.8	18722
 434.4	18698
 434.9	18713
 435.4	18769
 436.0	18746
 436.5	18743
 437.0	18821
 437.6	18799
 438.1	18847
 438.6	18851
 439.2	18877
 439.7	18872
 440.2	18821
 440.8	18843
 441.3	18855
 441.8	18849
 442.4	18818
 442.9	18849
 443.5	18881
 444.0	18871
 444.5	18896
 445.1	18825
 445.6	18861
 446.1	18879
 446.7	18893
 447.2	18917
 447.7	18908
 448.3	18982
 448.8	18948
 449.3	18987
 449.9	18943
 450.4	19046
 450.9	19086
 451.5	19101
 452.0	19071
 452.6	19110
 453.1	19162
 453.6	19179
 454.2	19089
 454.7	19165
 455.2	19187
 455.8	19233
 456.3	19186
 456.8	19314
 457.4	19243
 457.9	19255
 458.5	19302
 459.0	19267
 459.5	19305
 460.1	19260
 460.6	19305
 461.1	19292
 461.7	19339
 462.2	19294
 462.7	19326
 463.3	19261
 463.8	19333
 464.4	19393
 464.9	19341
 465.4	19407
 466.0	19313
 466.5	19386
 467.0	19331
 467.6	19399
 468.1	19485
 468.7	19418
 469.2	19369
 469.7	19457
 470.3	19449
 470.8	19489
 471.3	19477
 471.9	19441
 472.4	19497
 473.0	19541
 473.5	19564
 474.0	19568
 474.6	19580
 475.1	19575
 475.6	19652
 476.2	19666
 476.7	19647
 477.3	19710
 477.8	19654
 478.3	19595
 478.9	19790
 479.4	19686
 479.9	19711
 480.5	19702
 481.0	19725
 481.6	19757
 482.1	19821
 482.6	19810
 483.2	19823
 483.7	19937
 484.2	19880
 484.8	19747
 485.3	19842
 485.9	19917
 486.4	19880
 486.9	19907
 487.5	19880
 488.0	19891
 488.6	19954
 489.1	19974
 489.6	20025
 490.2	20018
 490.7	19988
 491.2	19959
 491.8	20017
 492.3	19971
 492.9	20018
 493.4	20033
 493.9	20048
 494.5	20051
 495.0	20113
 495.6	20035
 496.1	20043
 496.6	20099
 497.2	20024
 497.7	19987
 498.2	20073
 498.8	20089
 499.3	20001
 499.9	20066
 500.4	20062
 500.9	20050
 501.5	20041
 502.0	20123
 502.6	20101
 503.1	20190
 503.6	20171
 504.2	20134
 504.7	20153
 505.2	20225
 505.8	20235
 506.3	20321
 506.9	20341
 507.4	20329
 507.9	20320
 508.5	20371
 509.0	20427
 509.6	20503
 510.1	20491
 510.6	20541
 511.2	20577
 511.7	20577
 512.2	20651
 512.8	20681
 513.3	20655
 513.9	20658
 514.4	20722
 514.9	20801
 515.5	20705
 516.0	20780
 516.6	20756
 517.1	20802
 517.6	20779
 518.2	20753
 518.7	20691
 519.3	20733
 519.8	20766
 520.3	20756
 520.9	20701
 521.4	20696
 521.9	20744
 522.5	20663
 523.0	20677
 523.6	20704
 524.1	20566
 524.6	20615
 525.2	20631
 525.7	20669
 526.3	20596
 526.8	20687
 527.3	20644
 527.9	20673
 528.4	20659
 528.9	20730
 529.5	20747
 530.0	20753
 530.6	20805
 531.1	20822
 531.6	20755
 532.2	20881
 532.7	20863
 533.3	20917
 533.8	21047
 534.3	21095
 534.9	21115
 535.4	21080
 536.0	21163
 536.5	21219
 537.0	21199
 537.6	21244
 538.1	21302
 538.6	21343
 539.2	21299
 539.7	21326
 540.3	21432
 540.8	21403
 541.3	21376
 541.9	21412
 542.4	21427
 543.0	21485
 543.5	21452
 544.0	21427
 544.6	21471
 545.1	21485
 545.6	21517
 546.2	21501
 546.7	21417
 547.3	21477
 547.8	21448
 548.3	21494
 548.9	21410
 549.4	21407
 550.0	21377
 550.5	21433
 551.0	21470
 551.6	21421
 552.1	21437
 552.6	21438
 553.2	21413
 553.7	21393
 554.3	21423
 554.8	21491
 555.3	21356
 555.9	21423
 556.4	21395
 556.9	21490
 557.5	21519
 558.0	21488
 558.6	21467
 559.1	21538
 559.6	21533
 560.2	21543
 560.7	21548
 561.3	21531
 561.8	21520
 562.3	21631
 562.9	21623
 563.4	21665
 563.9	21661
 564.5	21674
 565.0	21665
 565.6	21687
 566.1	21691
 566.6	21695
 567.2	21692
 567.7	21789
 568.2	21709
 568.8	21724
 569.3	21697
 569.9	21764
 570.4	21753
 570.9	21727
 571.5	21727
 572.0	21718
 572.5	21779
 573.1	21737
 573.6	21782
 574.1	21779
 574.7	21787
 575.2	21763
 575.8	21802
 576.3	21885
 576.8	21861
 577.4	21874
 577.9	21894
 578.4	21869
 579.0	21891
 579.5	21989
 580.1	21927
 580.6	21948
 581.1	22030
 581.7	22058
 582.2	22003
 582.7	22059
 583.3	22107
 583.8	22088
 584.3	22049
 584.9	22113
 585.4	22125
 586.0	22103
 586.5	22143
 587.0	22117
 587.6	22191
 588.1	22150
 588.6	22222
 589.2	22166
 589.7	22189
 590.2	22180
 590.8	22173
 591.3	22196
 591.9	22142
 592.4	22202
 592.9	22132
 593.5	22121
 594.0	22105
 594.5	22116
 595.1	22089
 595.6	22059
 596.1	22108
 596.7	22058
 597.2	22089
 597.7	22021
 598.3	22025
 598.8	21988
 599.3	21994
 599.9	21969
 600.4	21953
 601.0	21953
 601.5	21935
 602.0	21921
 602.6	21874
 603.1	21889
 603.6	21893
 604.2	21986
 604.7	21897
 605.2	21966
 605.8	21886
 606.3	21919
 606.8	21990
 607.4	21976
 607.9	22018
 608.4	21969
 609.0	22007
 609.5	22060
 610.0	22039
 610.6	22137
 611.1	22077
 611.6	22109
 612.2	22119
 612.7	22187
 613.2	22186
 613.8	22129
 614.3	22175
 614.8	22235
 615.4	22186
 615.9	22281
 616.4	22351
 617.0	22321
 617.5	22423
 618.0	22449
 618.6	22398
 619.1	22447
 619.6	22538
 620.2	22555
 620.7	22632
 621.2	22612
 621.8	22671
 622.3	22713
 622.8	22684
 623.4	22728
 623.9	22802
 624.4	22789
 625.0	22789
 625.5	22801
 626.0	22815
 626.6	22864
 627.1	22854
 627.6	22806
 628.2	22777
 628.7	22806
 629.2	22789
 629.8	22812
 630.3	22818
 630.8	22795
 631.4	22761
 631.9	22783
 632.4	22666
 632.9	22667
 633.5	22651
 634.0	22598
 634.5	22661
 635.1	22587
 635.6	22558
 636.1	22528
 636.7	22562
 637.2	22542
 637.7	22439
 638.3	22524
 638.8	22504
 639.3	22502
 639.8	22448
 640.4	22461
 640.9	22472
 641.4	22383
 642.0	22359
 642.5	22375
 643.0	22347
 643.6	22419
 644.1	22377
 644.6	22391
 645.1	22422
 645.7	22401
 646.2	22367
 646.7	22388
 647.3	22416
 647.8	22418
 648.3	22404
 648.9	22444
 649.4	22365
 649.9	22441
 650.4	22451
 651.0	22501
 651.5	22523
 652.0	22576
 652.6	22529
 653.1	22613
 653.6	22535
 654.1	22614
 654.7	22582
 655.2	22669
 655.7	22709
 656.3	22727
 656.8	22686
 657.3	22753
 657.8	22710
 658.4	22710
 658.9	22727
 659.4	22804
 659.9	22811
 660.5	22792
 661.0	22843
 661.5	22888
 662.1	22855
 662.6	22865
 663.1	22835
 663.6	22907
 664.2	22876
 664.7	22843
 665.2	22776
 665.7	22883
 666.3	22860
 666.8	22865
 667.3	22862
 667.8	22831
 668.4	22854
 668.9	22855
 669.4	22835
 669.9	22865
 670.5	22799
 671.0	22815
 671.5	22759
 672.0	22814
 672.6	22820
 673.1	22840
 673.6	22750
 674.1	22777
 674.7	22767
 675.2	22810
 675.7	22673
 676.2	22673
 676.8	22730
 677.3	22739
 677.8	22663
 678.3	22769
 678.9	22700
 679.4	22646
 679.9	22696
 680.4	22702
 681.0	22669
 681.5	22695
 682.0	22661
 682.5	22684
 683.1	22601
 683.6	22637
 684.1	22579
 684.6	22671
 685.1	22621
 685.7	22635
 686.2	22607
 686.7	22577
 687.2	22556
 687.8	22623
 688.3	22564
 688.8	22595
 689.3	22541
 689.8	22567
 690.4	22563
 690.9	22569
 691.4	22572
 691.9	22594
 692.4	22551
 693.0	22623
 693.5	22590
 694.0	22578
 694.5	22569
 695.1	22552
 695.6	22520
 696.1	22589
 696.6	22567
 697.1	22588
 697.7	22614
 698.2	22545
 698.7	22569
 699.2	22532
 699.7	22540
 700.3	22513
 700.8	22495
 701.3	22600
 701.8	22549
 702.3	22499
 702.8	22507
 703.4	22478
 703.9	22475
 704.4	22469
 704.9	22433
 705.4	22437
 706.0	22520
 706.5	22501
 707.0	22413
 707.5	22399
 708.0	22424
 708.5	22367
 709.1	22430
 709.6	22396
 710.1	22358
 710.6	22329
 711.1	22325
 711.7	22343
 712.2	22339
 712.7	22345
 713.2	22316
 713.7	22321
 714.2	22281
 714.8	22354
 715.3	22301
 715.8	22304
 716.3	22308
 716.8	22227
 717.3	22211
 717.8	22317
 718.4	22331
 718.9	22265
 719.4	22344
 719.9	22257
 720.4	22307
 720.9	22311
 721.4	22308
 722.0	22335
 722.5	22315
 723.0	22303
 723.5	22315
 724.0	22284
 724.5	22277
 725.0	22305
 725.6	22239
 726.1	22288
 726.6	22403
 727.1	22341
 727.6	22377
 728.1	22396
 728.6	22357
 729.1	22344
 729.7	22338
 730.2	22360
 730.7	22392
 731.2	22420
 731.7	22411
 732.2	22418
 732.7	22395
 733.2	22436
 733.8	22409
 734.3	22433
 734.8	22412
 735.3	22430
 735.8	22418
 736.3	22399
 736.8	22441
 737.3	22477
 737.8	22435
 738.4	22434
 738.9	22399
 739.4	22475
 739.9	22459
 740.4	22468
 740.9	22455
 741.4	22453
 741.9	22444
 742.4	22463
 742.9	22444
 743.4	22524
 744.0	22440
 744.5	22434
 745.0	22449
 745.5	22513
 746.0	22482
 746.5	22487
 747.0	22438
 747.5	22420
 748.0	22388
 748.5	22403
 749.0	22409
 749.5	22487
 750.0	22324
 750.5	22370
 751.1	22379
 751.6	22374
 752.1	22354
 752.6	22316
 753.1	22341
 753.6	22277
 754.1	22241
 754.6	22279
 755.1	22239
 755.6	22233
 756.1	22153
 756.6	22239
 757.1	22199
 757.6	22172
 758.1	22136
 758.6	22139
 759.1	22062
 759.6	22090
 760.1	22026
 760.7	21991
 761.2	22062
 761.7	21996
 762.2	21974
 762.7	22017
 763.2	21877
 763.7	21946
 764.2	21879
 764.7	21878
 765.2	21895
 765.7	21853
 766.2	21805
 766.7	21840
 767.2	21780
 767.7	21778
 768.2	21747
 768.7	21712
 769.2	21697
 769.7	21730
 770.2	21695
 770.7	21687
 771.2	21661
 771.7	21639
 772.2	21637
 772.7	21674
 773.2	21655
 773.7	21601
 774.2	21541
 774.7	21591
 775.2	21573
 775.7	21543
 776.2	21533
 776.7	21555
 777.2	21485
 777.7	21550
 778.2	21533
 778.7	21564
 779.2	21569
 779.7	21592
 780.2	21439
 780.7	21505
 781.2	21509
 781.7	21563
 782.2	21486
 782.6	21556
 783.1	21556
 783.6	21522
 784.1	21487
 784.6	21475
 785.1	21483
 785.6	21475
 786.1	21503
 786.6	21515
 787.1	21462
 787.6	21461
 788.1	21444
 788.6	21434
 789.1	21424
 789.6	21457
 790.1	21465
 790.6	21462
 791.1	21367
 791.6	21360
 792.0	21377
 792.5	21415
 793.0	21387
 793.5	21379
 794.0	21307
 794.5	21384
 795.0	21359
 795.5	21325
 796.0	21336
 796.5	21277
 797.0	21293
 797.5	21322
 798.0	21179
 798.4	21213
 798.9	21186
 799.4	21191
 799.9	21183
 800.4	21053
 800.9	21138
 801.4	21182
 801.9	21131
 802.4	21062
 802.9	21105
 803.3	21085
 803.8	21046
 804.3	20985
 804.8	21027
 805.3	20980
 805.8	20947
 806.3	20936
 806.8	20908
 807.2	20894
 807.7	20859
 808.2	20875
 808.7	20789
 809.2	20788
 809.7	20711
 810.2	20763
 810.7	20699
 811.1	20695
 811.6	20687
 812.1	20637
 812.6	20588
 813.1	20627
 813.6	20632
 814.1	20602
 814.5	20557
 815.0	20564
 815.5	20522
 816.0	20471
 816.5	20527
 817.0	20469
 817.4	20440
 817.9	20468
 818.4	20403
 818.9	20472
 819.4	20414
 819.9	20390
 820.3	20359
 820.8	20351
 821.3	20340
 821.8	20337
 822.3	20300
 822.7	20269
 823.2	20316
 823.7	20268
 824.2	20267
 824.7	20245
 825.2	20252
 825.6	20231
 826.1	20216
 826.6	20259
 827.1	20242
 827.6	20227
 828.0	20174
 828.5	20137
 829.0	20171
 829.5	20115
 829.9	20116
 830.4	20162
 830.9	20143
 831.4	20156
 831.9	20123
 832.3	20188
 832.8	20137
 833.3	20127
 833.8	20199
 834.2	20186
 834.7	20041
 835.2	20123
 835.7	20128
 836.1	20111
 836.6	20098
 837.1	20101
 837.6	20108
 838.0	20133
 838.5	20151
 839.0	20151
 839.5	20142
 839.9	20066
 840.4	20062
 840.9	20027
 841.4	20070
 841.8	20077
 842.3	20087
 842.8	20107
 843.3	20100
 843.7	20006
 844.2	19991
 844.7	20072
 845.1	20039
 845.6	19966
 846.1	19982
 846.6	20016
 847.0	19911
 847.5	19957
 848.0	19935
 848.4	19971
 848.9	19937
 849.4	19914
 849.8	19929
 850.3	19925
 850.8	19965
 851.3	19921
 851.7	19924
 852.2	19920
 852.7	19905
 853.1	19883
 853.6	19830
 854.1	19873
 854.5	19832
 855.0	19818
 855.5	19802
 855.9	19859
 856.4	19847
 856.9	19752
 857.3	19799
 857.8	19773
 858.3	19807
 858.7	19751
 859.2	19767
 859.7	19759
 860.1	19812
 860.6	19787
 861.1	19729
 861.5	19763
 862.0	19764
 862.4	19727
 862.9	19689
 863.4	19733
 863.8	19729
 864.3	19719
 864.8	19633
 865.2	19685
 865.7	19698
 866.1	19709
 866.6	19628
 867.1	19693
 867.5	19680
 868.0	19647
 868.5	19597
 868.9	19604
 869.4	19696
 869.8	19641
 870.3	19593
 870.8	19658
 871.2	19607
 871.7	19593
 872.1	19532
 872.6	19575
 873.0	19540
 873.5	19607
 874.0	19585
 874.4	19465
 874.9	19493
 875.3	19444
 875.8	19351
 876.2	19167
 876.7	19033
 877.2	18730
 877.6	18350
 878.1	17980
