#xlabel Wavelength (nm)
#ylabel Spectrometer Array Counts
#title Exposure time is 11000 ms
## lambda	counts
 349.8	18200
 350.3	18481
 350.8	18745
 351.3	18948
 351.9	19059
 352.4	19174
 352.9	19243
 353.4	19198
 354.0	19189
 354.5	19227
 355.0	19225
 355.5	19238
 356.0	19197
 356.6	19161
 357.1	19211
 357.6	19181
 358.1	19208
 358.7	19143
 359.2	19158
 359.7	19170
 360.2	19207
 360.8	19173
 361.3	19271
 361.8	19205
 362.3	19231
 362.9	19185
 363.4	19260
 363.9	19262
 364.4	19287
 364.9	19187
 365.5	19257
 366.0	19237
 366.5	19185
 367.0	19229
 367.6	19257
 368.1	19253
 368.6	19178
 369.1	19237
 369.7	19282
 370.2	19199
 370.7	19194
 371.2	19233
 371.8	19289
 372.3	19198
 372.8	19279
 373.3	19283
 373.9	19225
 374.4	19237
 374.9	19285
 375.5	19162
 376.0	19289
 376.5	19249
 377.0	19266
 377.6	19205
 378.1	19281
 378.6	19209
 379.1	19201
 379.7	19180
 380.2	19245
 380.7	19242
 381.2	19192
 381.8	19180
 382.3	19216
 382.8	19191
 383.4	19241
 383.9	19181
 384.4	19330
 384.9	19231
 385.5	19247
 386.0	19245
 386.5	19315
 387.1	19239
 387.6	19263
 388.1	19251
 388.6	19262
 389.2	19246
 389.7	19261
 390.2	19234
 390.8	19314
 391.3	19271
 391.8	19268
 392.3	19239
 392.9	19227
 393.4	19209
 393.9	19278
 394.5	19263
 395.0	19203
 395.5	19216
 396.0	19214
 396.6	19167
 397.1	19262
 397.6	19247
 398.2	19252
 398.7	19245
 399.2	19334
 399.8	19195
 400.3	19265
 400.8	19307
 401.3	19270
 401.9	19284
 402.4	19298
 402.9	19277
 403.5	19299
 404.0	19278
 404.5	19223
 405.1	19214
 405.6	19307
 406.1	19272
 406.7	19267
 407.2	19263
 407.7	19334
 408.2	19319
 408.8	19307
 409.3	19329
 409.8	19366
 410.4	19321
 410.9	19313
 411.4	19251
 412.0	19309
 412.5	19352
 413.0	19287
 413.6	19328
 414.1	19279
 414.6	19307
 415.2	19337
 415.7	19273
 416.2	19312
 416.8	19291
 417.3	19265
 417.8	19277
 418.4	19357
 418.9	19290
 419.4	19411
 420.0	19285
 420.5	19347
 421.0	19282
 421.5	19362
 422.1	19334
 422.6	19385
 423.1	19399
 423.7	19361
 424.2	19337
 424.7	19371
 425.3	19343
 425.8	19353
 426.3	19333
 426.9	19382
 427.4	19319
 427.9	19425
 428.5	19359
 429.0	19387
 429.6	19335
 430.1	19403
 430.6	19387
 431.2	19307
 431.7	19403
 432.2	19353
 432.8	19307
 433.3	19403
 433.8	19395
 434.4	19352
 434.9	19354
 435.4	19384
 436.0	19355
 436.5	19341
 437.0	19408
 437.6	19371
 438.1	19415
 438.6	19415
 439.2	19433
 439.7	19419
 440.2	19359
 440.8	19387
 441.3	19386
 441.8	19387
 442.4	19353
 442.9	19384
 443.5	19412
 444.0	19407
 444.5	19430
 445.1	19333
 445.6	19363
 446.1	19383
 446.7	19391
 447.2	19403
 447.7	19376
 448.3	19433
 448.8	19383
 449.3	19409
 449.9	19336
 450.4	19418
 450.9	19445
 451.5	19429
 452.0	19380
 452.6	19383
 453.1	19421
 453.6	19416
 454.2	19287
 454.7	19355
 455.2	19355
 455.8	19395
 456.3	19320
 456.8	19441
 457.4	19352
 457.9	19361
 458.5	19401
 459.0	19360
 459.5	19392
 460.1	19337
 460.6	19389
 461.1	19371
 461.7	19415
 462.2	19365
 462.7	19405
 463.3	19326
 463.8	19402
 464.4	19467
 464.9	19400
 465.4	19462
 466.0	19348
 466.5	19418
 467.0	19340
 467.6	19407
 468.1	19485
 468.7	19409
 469.2	19323
 469.7	19403
 470.3	19371
 470.8	19406
 471.3	19367
 471.9	19311
 472.4	19354
 473.0	19392
 473.5	19393
 474.0	19377
 474.6	19375
 475.1	19346
 475.6	19414
 476.2	19415
 476.7	19387
 477.3	19439
 477.8	19364
 478.3	19285
 478.9	19487
 479.4	19356
 479.9	19362
 480.5	19343
 481.0	19356
 481.6	19369
 482.1	19416
 482.6	19391
 483.2	19383
 483.7	19497
 484.2	19412
 484.8	19236
 485.3	19334
 485.9	19400
 486.4	19355
 486.9	19361
 487.5	19313
 488.0	19310
 488.6	19361
 489.1	19364
 489.6	19417
 490.2	19402
 490.7	19351
 491.2	19319
 491.8	19366
 492.3	19318
 492.9	19359
 493.4	19368
 493.9	19383
 494.5	19387
 495.0	19453
 495.6	19367
 496.1	19385
 496.6	19445
 497.2	19353
 497.7	19320
 498.2	19414
 498.8	19439
 499.3	19347
 499.9	19401
 500.4	19392
 500.9	19376
 501.5	19353
 502.0	19416
 502.6	19383
 503.1	19463
 503.6	19415
 504.2	19352
 504.7	19350
 505.2	19397
 505.8	19374
 506.3	19432
 506.9	19419
 507.4	19374
 507.9	19331
 508.5	19347
 509.0	19371
 509.6	19415
 510.1	19367
 510.6	19399
 511.2	19400
 511.7	19363
 512.2	19418
 512.8	19422
 513.3	19373
 513.9	19355
 514.4	19404
 514.9	19477
 515.5	19359
 516.0	19439
 516.6	19407
 517.1	19460
 517.6	19441
 518.2	19423
 518.7	19364
 519.3	19420
 519.8	19476
 520.3	19478
 520.9	19433
 521.4	19447
 521.9	19511
 522.5	19439
 523.0	19466
 523.6	19510
 524.1	19358
 524.6	19418
 525.2	19444
 525.7	19474
 526.3	19387
 526.8	19475
 527.3	19416
 527.9	19434
 528.4	19407
 528.9	19458
 529.5	19463
 530.0	19435
 530.6	19476
 531.1	19469
 531.6	19363
 532.2	19477
 532.7	19415
 533.3	19431
 533.8	19543
 534.3	19558
 534.9	19537
 535.4	19463
 536.0	19522
 536.5	19551
 537.0	19494
 537.6	19501
 538.1	19548
 538.6	19547
 539.2	19474
 539.7	19476
 540.3	19570
 540.8	19526
 541.3	19470
 541.9	19501
 542.4	19497
 543.0	19558
 543.5	19511
 544.0	19491
 544.6	19546
 545.1	19547
 545.6	19589
 546.2	19565
 546.7	19471
 547.3	19536
 547.8	19516
 548.3	19567
 548.9	19484
 549.4	19488
 550.0	19454
 550.5	19521
 551.0	19573
 551.6	19514
 552.1	19537
 552.6	19542
 553.2	19514
 553.7	19494
 554.3	19534
 554.8	19597
 555.3	19443
 555.9	19523
 556.4	19470
 556.9	19557
 557.5	19585
 558.0	19531
 558.6	19505
 559.1	19574
 559.6	19546
 560.2	19539
 560.7	19533
 561.3	19494
 561.8	19461
 562.3	19577
 562.9	19555
 563.4	19579
 563.9	19564
 564.5	19561
 565.0	19540
 565.6	19563
 566.1	19553
 566.6	19558
 567.2	19540
 567.7	19647
 568.2	19537
 568.8	19557
 569.3	19521
 569.9	19597
 570.4	19575
 570.9	19544
 571.5	19537
 572.0	19521
 572.5	19579
 573.1	19517
 573.6	19565
 574.1	19551
 574.7	19541
 575.2	19508
 575.8	19537
 576.3	19603
 576.8	19563
 577.4	19569
 577.9	19569
 578.4	19523
 579.0	19525
 579.5	19617
 580.1	19531
 580.6	19526
 581.1	19597
 581.7	19608
 582.2	19531
 582.7	19568
 583.3	19608
 583.8	19563
 584.3	19504
 584.9	19557
 585.4	19551
 586.0	19519
 586.5	19549
 587.0	19497
 587.6	19572
 588.1	19518
 588.6	19589
 589.2	19523
 589.7	19537
 590.2	19526
 590.8	19526
 591.3	19553
 591.9	19491
 592.4	19555
 592.9	19502
 593.5	19497
 594.0	19495
 594.5	19513
 595.1	19503
 595.6	19489
 596.1	19551
 596.7	19523
 597.2	19568
 597.7	19520
 598.3	19528
 598.8	19501
 599.3	19525
 599.9	19510
 600.4	19507
 601.0	19518
 601.5	19509
 602.0	19504
 602.6	19451
 603.1	19474
 603.6	19465
 604.2	19572
 604.7	19469
 605.2	19540
 605.8	19445
 606.3	19470
 606.8	19540
 607.4	19502
 607.9	19533
 608.4	19469
 609.0	19495
 609.5	19537
 610.0	19501
 610.6	19589
 611.1	19487
 611.6	19507
 612.2	19495
 612.7	19551
 613.2	19537
 613.8	19445
 614.3	19465
 614.8	19508
 615.4	19415
 615.9	19482
 616.4	19531
 617.0	19463
 617.5	19551
 618.0	19549
 618.6	19448
 619.1	19461
 619.6	19529
 620.2	19502
 620.7	19539
 621.2	19478
 621.8	19504
 622.3	19511
 622.8	19456
 623.4	19477
 623.9	19529
 624.4	19491
 625.0	19486
 625.5	19483
 626.0	19490
 626.6	19534
 627.1	19529
 627.6	19478
 628.2	19445
 628.7	19477
 629.2	19461
 629.8	19497
 630.3	19519
 630.8	19503
 631.4	19499
 631.9	19531
 632.4	19431
 632.9	19460
 633.5	19477
 634.0	19446
 634.5	19549
 635.1	19485
 635.6	19470
 636.1	19460
 636.7	19538
 637.2	19537
 637.7	19447
 638.3	19558
 638.8	19563
 639.3	19582
 639.8	19545
 640.4	19569
 640.9	19599
 641.4	19502
 642.0	19505
 642.5	19528
 643.0	19503
 643.6	19595
 644.1	19551
 644.6	19558
 645.1	19609
 645.7	19577
 646.2	19539
 646.7	19556
 647.3	19585
 647.8	19583
 648.3	19555
 648.9	19589
 649.4	19493
 649.9	19560
 650.4	19563
 651.0	19598
 651.5	19604
 652.0	19646
 652.6	19579
 653.1	19650
 653.6	19548
 654.1	19628
 654.7	19564
 655.2	19636
 655.7	19663
 656.3	19676
 656.8	19599
 657.3	19652
 657.8	19595
 658.4	19573
 658.9	19564
 659.4	19655
 659.9	19637
 660.5	19604
 661.0	19646
 661.5	19687
 662.1	19641
 662.6	19649
 663.1	19601
 663.6	19685
 664.2	19641
 664.7	19607
 665.2	19529
 665.7	19653
 666.3	19619
 666.8	19637
 667.3	19638
 667.8	19599
 668.4	19635
 668.9	19647
 669.4	19629
 669.9	19667
 670.5	19606
 671.0	19625
 671.5	19579
 672.0	19649
 672.6	19662
 673.1	19689
 673.6	19606
 674.1	19647
 674.7	19635
 675.2	19694
 675.7	19551
 676.2	19572
 676.8	19625
 677.3	19659
 677.8	19581
 678.3	19703
 678.9	19640
 679.4	19596
 679.9	19657
 680.4	19670
 681.0	19639
 681.5	19687
 682.0	19656
 682.5	19686
 683.1	19601
 683.6	19663
 684.1	19602
 684.6	19715
 685.1	19645
 685.7	19683
 686.2	19642
 686.7	19610
 687.2	19604
 687.8	19686
 688.3	19615
 688.8	19651
 689.3	19589
 689.8	19619
 690.4	19619
 690.9	19629
 691.4	19616
 691.9	19659
 692.4	19605
 693.0	19681
 693.5	19647
 694.0	19631
 694.5	19628
 695.1	19605
 695.6	19569
 696.1	19639
 696.6	19620
 697.1	19639
 697.7	19671
 698.2	19607
 698.7	19627
 699.2	19589
 699.7	19600
 700.3	19579
 700.8	19555
 701.3	19678
 701.8	19641
 702.3	19587
 702.8	19602
 703.4	19565
 703.9	19594
 704.4	19595
 704.9	19551
 705.4	19575
 706.0	19687
 706.5	19674
 707.0	19591
 707.5	19584
 708.0	19625
 708.5	19582
 709.1	19657
 709.6	19626
 710.1	19601
 710.6	19587
 711.1	19594
 711.7	19623
 712.2	19636
 712.7	19650
 713.2	19635
 713.7	19639
 714.2	19601
 714.8	19688
 715.3	19640
 715.8	19647
 716.3	19659
 716.8	19571
 717.3	19555
 717.8	19671
 718.4	19687
 718.9	19623
 719.4	19697
 719.9	19610
 720.4	19654
 720.9	19661
 721.4	19657
 722.0	19677
 722.5	19655
 723.0	19642
 723.5	19648
 724.0	19611
 724.5	19605
 725.0	19621
 725.6	19546
 726.1	19595
 726.6	19719
 727.1	19651
 727.6	19690
 728.1	19707
 728.6	19663
 729.1	19646
 729.7	19635
 730.2	19667
 730.7	19697
 731.2	19722
 731.7	19718
 732.2	19717
 732.7	19697
 733.2	19751
 733.8	19719
 734.3	19733
 734.8	19697
 735.3	19721
 735.8	19699
 736.3	19665
 736.8	19697
 737.3	19729
 737.8	19675
 738.4	19667
 738.9	19614
 739.4	19699
 739.9	19685
 740.4	19686
 740.9	19683
 741.4	19677
 741.9	19671
 742.4	19688
 742.9	19672
 743.4	19768
 744.0	19679
 744.5	19681
 745.0	19703
 745.5	19787
 746.0	19762
 746.5	19767
 747.0	19719
 747.5	19707
 748.0	19681
 748.5	19700
 749.0	19731
 749.5	19825
 750.0	19658
 750.5	19729
 751.1	19745
 751.6	19753
 752.1	19752
 752.6	19723
 753.1	19760
 753.6	19701
 754.1	19676
 754.6	19738
 755.1	19700
 755.6	19721
 756.1	19641
 756.6	19759
 757.1	19733
 757.6	19719
 758.1	19699
 758.6	19729
 759.1	19662
 759.6	19713
 760.1	19669
 760.7	19644
 761.2	19731
 761.7	19683
 762.2	19673
 762.7	19745
 763.2	19591
 763.7	19703
 764.2	19641
 764.7	19659
 765.2	19706
 765.7	19687
 766.2	19653
 766.7	19713
 767.2	19678
 767.7	19697
 768.2	19689
 768.7	19659
 769.2	19673
 769.7	19733
 770.2	19701
 770.7	19706
 771.2	19698
 771.7	19678
 772.2	19703
 772.7	19752
 773.2	19742
 773.7	19697
 774.2	19657
 774.7	19708
 775.2	19709
 775.7	19688
 776.2	19684
 776.7	19723
 777.2	19645
 777.7	19735
 778.2	19720
 778.7	19759
 779.2	19779
 779.7	19809
 780.2	19651
 780.7	19727
 781.2	19739
 781.7	19815
 782.2	19735
 782.6	19820
 783.1	19833
 783.6	19791
 784.1	19769
 784.6	19759
 785.1	19765
 785.6	19765
 786.1	19805
 786.6	19819
 787.1	19767
 787.6	19772
 788.1	19775
 788.6	19762
 789.1	19759
 789.6	19809
 790.1	19829
 790.6	19830
 791.1	19742
 791.6	19749
 792.0	19781
 792.5	19823
 793.0	19817
 793.5	19818
 794.0	19759
 794.5	19858
 795.0	19855
 795.5	19825
 796.0	19849
 796.5	19809
 797.0	19843
 797.5	19893
 798.0	19753
 798.4	19811
 798.9	19806
 799.4	19837
 799.9	19851
 800.4	19726
 800.9	19837
 801.4	19920
 801.9	19895
 802.4	19831
 802.9	19911
 803.3	19912
 803.8	19899
 804.3	19854
 804.8	19929
 805.3	19891
 805.8	19893
 806.3	19904
 806.8	19897
 807.2	19905
 807.7	19886
 808.2	19927
 808.7	19857
 809.2	19878
 809.7	19821
 810.2	19896
 810.7	19843
 811.1	19871
 811.6	19883
 812.1	19855
 812.6	19819
 813.1	19879
 813.6	19911
 814.1	19898
 814.5	19862
 815.0	19894
 815.5	19871
 816.0	19826
 816.5	19907
 817.0	19864
 817.4	19854
 817.9	19899
 818.4	19837
 818.9	19934
 819.4	19890
 819.9	19874
 820.3	19849
 820.8	19861
 821.3	19871
 821.8	19904
 822.3	19839
 822.7	19828
 823.2	19900
 823.7	19854
 824.2	19863
 824.7	19852
 825.2	19871
 825.6	19860
 826.1	19851
 826.6	19911
 827.1	19902
 827.6	19906
 828.0	19844
 828.5	19819
 829.0	19869
 829.5	19813
 829.9	19827
 830.4	19891
 830.9	19877
 831.4	19906
 831.9	19864
 832.3	19951
 832.8	19893
 833.3	19894
 833.8	19979
 834.2	19975
 834.7	19817
 835.2	19923
 835.7	19932
 836.1	19926
 836.6	19909
 837.1	19920
 837.6	19931
 838.0	19976
 838.5	20002
 839.0	19998
 839.5	19987
 839.9	19915
 840.4	19928
 840.9	19894
 841.4	19942
 841.8	19967
 842.3	19986
 842.8	20011
 843.3	20011
 843.7	19909
 844.2	19902
 844.7	19996
 845.1	19965
 845.6	19890
 846.1	19918
 846.6	19951
 847.0	19851
 847.5	19910
 848.0	19899
 848.4	19949
 848.9	19913
 849.4	19904
 849.8	19938
 850.3	19930
 850.8	19985
 851.3	19949
 851.7	19946
 852.2	19956
 852.7	19946
 853.1	19932
 853.6	19894
 854.1	19936
 854.5	19912
 855.0	19898
 855.5	19900
 855.9	19966
 856.4	19961
 856.9	19876
 857.3	19941
 857.8	19921
 858.3	19972
 858.7	19930
 859.2	19951
 859.7	19946
 860.1	19998
 860.6	19985
 861.1	19927
 861.5	19984
 862.0	19994
 862.4	19973
 862.9	19941
 863.4	19979
 863.8	19991
 864.3	19996
 864.8	19916
 865.2	19974
 865.7	20002
 866.1	20020
 866.6	19935
 867.1	20027
 867.5	20014
 868.0	19992
 868.5	19955
 868.9	19963
 869.4	20072
 869.8	20027
 870.3	19982
 870.8	20058
 871.2	20009
 871.7	20011
 872.1	19962
 872.6	20017
 873.0	20000
 873.5	20095
 874.0	20099
 874.4	20006
 874.9	20061
 875.3	20046
 875.8	19980
 876.2	19790
 876.7	19653
 877.2	19326
 877.6	18900
 878.1	18494
