#xlabel Wavelength (nm)
#ylabel Spectrometer Array Counts
#title Exposure time is 11000 ms
## lambda	counts
 349.8	18399
 350.3	18662
 350.8	18917
 351.3	19125
 351.9	19252
 352.4	19383
 352.9	19475
 353.4	19451
 354.0	19463
 354.5	19519
 355.0	19526
 355.5	19545
 356.0	19505
 356.6	19469
 357.1	19520
 357.6	19503
 358.1	19527
 358.7	19464
 359.2	19487
 359.7	19505
 360.2	19546
 360.8	19514
 361.3	19613
 361.8	19557
 362.3	19596
 362.9	19549
 363.4	19634
 363.9	19640
 364.4	19669
 364.9	19578
 365.5	19660
 366.0	19646
 366.5	19599
 367.0	19651
 367.6	19677
 368.1	19679
 368.6	19615
 369.1	19680
 369.7	19735
 370.2	19659
 370.7	19667
 371.2	19715
 371.8	19777
 372.3	19695
 372.8	19785
 373.3	19805
 373.9	19741
 374.4	19768
 374.9	19825
 375.5	19718
 376.0	19855
 376.5	19819
 377.0	19845
 377.6	19803
 378.1	19893
 378.6	19830
 379.1	19841
 379.7	19831
 380.2	19909
 380.7	19917
 381.2	19879
 381.8	19877
 382.3	19930
 382.8	19919
 383.4	19971
 383.9	19919
 384.4	20082
 384.9	19990
 385.5	20012
 386.0	20015
 386.5	20096
 387.1	20029
 387.6	20055
 388.1	20055
 388.6	20087
 389.2	20075
 389.7	20107
 390.2	20099
 390.8	20194
 391.3	20174
 391.8	20191
 392.3	20183
 392.9	20197
 393.4	20196
 393.9	20287
 394.5	20296
 395.0	20263
 395.5	20292
 396.0	20299
 396.6	20281
 397.1	20381
 397.6	20381
 398.2	20393
 398.7	20397
 399.2	20497
 399.8	20365
 400.3	20443
 400.8	20488
 401.3	20458
 401.9	20483
 402.4	20511
 402.9	20505
 403.5	20543
 404.0	20536
 404.5	20502
 405.1	20516
 405.6	20630
 406.1	20613
 406.7	20632
 407.2	20653
 407.7	20751
 408.2	20757
 408.8	20777
 409.3	20823
 409.8	20883
 410.4	20859
 410.9	20879
 411.4	20832
 412.0	20915
 412.5	20977
 413.0	20929
 413.6	20993
 414.1	20967
 414.6	21005
 415.2	21057
 415.7	21007
 416.2	21071
 416.8	21066
 417.3	21063
 417.8	21094
 418.4	21194
 418.9	21143
 419.4	21286
 420.0	21183
 420.5	21263
 421.0	21206
 421.5	21307
 422.1	21292
 422.6	21360
 423.1	21391
 423.7	21369
 424.2	21357
 424.7	21403
 425.3	21391
 425.8	21413
 426.3	21403
 426.9	21482
 427.4	21426
 427.9	21547
 428.5	21505
 429.0	21561
 429.6	21534
 430.1	21634
 430.6	21653
 431.2	21615
 431.7	21743
 432.2	21735
 432.8	21738
 433.3	21873
 433.8	21902
 434.4	21901
 434.9	21939
 435.4	22016
 436.0	22019
 436.5	22034
 437.0	22122
 437.6	22118
 438.1	22178
 438.6	22199
 439.2	22233
 439.7	22225
 440.2	22174
 440.8	22212
 441.3	22217
 441.8	22220
 442.4	22194
 442.9	22217
 443.5	22253
 444.0	22247
 444.5	22280
 445.1	22188
 445.6	22241
 446.1	22275
 446.7	22310
 447.2	22343
 447.7	22343
 448.3	22443
 448.8	22427
 449.3	22495
 449.9	22473
 450.4	22620
 450.9	22687
 451.5	22723
 452.0	22739
 452.6	22792
 453.1	22899
 453.6	22939
 454.2	22869
 454.7	22975
 455.2	23031
 455.8	23109
 456.3	23073
 456.8	23222
 457.4	23167
 457.9	23190
 458.5	23241
 459.0	23217
 459.5	23264
 460.1	23217
 460.6	23267
 461.1	23261
 461.7	23309
 462.2	23263
 462.7	23300
 463.3	23229
 463.8	23304
 464.4	23379
 464.9	23325
 465.4	23408
 466.0	23327
 466.5	23407
 467.0	23358
 467.6	23444
 468.1	23557
 468.7	23515
 469.2	23469
 469.7	23587
 470.3	23595
 470.8	23658
 471.3	23665
 471.9	23660
 472.4	23735
 473.0	23803
 473.5	23851
 474.0	23869
 474.6	23905
 475.1	23923
 475.6	24023
 476.2	24050
 476.7	24047
 477.3	24126
 477.8	24092
 478.3	24030
 478.9	24257
 479.4	24170
 479.9	24205
 480.5	24218
 481.0	24274
 481.6	24316
 482.1	24409
 482.6	24409
 483.2	24455
 483.7	24591
 484.2	24557
 484.8	24421
 485.3	24543
 485.9	24641
 486.4	24636
 486.9	24675
 487.5	24658
 488.0	24689
 488.6	24770
 489.1	24805
 489.6	24872
 490.2	24884
 490.7	24866
 491.2	24841
 491.8	24915
 492.3	24873
 492.9	24937
 493.4	24943
 493.9	24967
 494.5	24969
 495.0	25025
 495.6	24946
 496.1	24949
 496.6	25002
 497.2	24918
 497.7	24888
 498.2	24965
 498.8	24983
 499.3	24900
 499.9	24953
 500.4	24958
 500.9	24957
 501.5	24968
 502.0	25058
 502.6	25063
 503.1	25177
 503.6	25175
 504.2	25165
 504.7	25215
 505.2	25318
 505.8	25345
 506.3	25491
 506.9	25557
 507.4	25578
 507.9	25612
 508.5	25701
 509.0	25803
 509.6	25935
 510.1	25957
 510.6	26047
 511.2	26119
 511.7	26161
 512.2	26273
 512.8	26338
 513.3	26347
 513.9	26371
 514.4	26458
 514.9	26563
 515.5	26475
 516.0	26560
 516.6	26518
 517.1	26565
 517.6	26537
 518.2	26500
 518.7	26422
 519.3	26459
 519.8	26460
 520.3	26422
 520.9	26363
 521.4	26346
 521.9	26373
 522.5	26266
 523.0	26250
 523.6	26275
 524.1	26115
 524.6	26151
 525.2	26170
 525.7	26213
 526.3	26155
 526.8	26253
 527.3	26214
 527.9	26257
 528.4	26261
 528.9	26347
 529.5	26390
 530.0	26415
 530.6	26506
 531.1	26557
 531.6	26516
 532.2	26675
 532.7	26704
 533.3	26795
 533.8	26967
 534.3	27073
 534.9	27125
 535.4	27135
 536.0	27267
 536.5	27361
 537.0	27385
 537.6	27463
 538.1	27563
 538.6	27634
 539.2	27621
 539.7	27685
 540.3	27809
 540.8	27815
 541.3	27803
 541.9	27867
 542.4	27882
 543.0	27964
 543.5	27935
 544.0	27913
 544.6	27953
 545.1	27979
 545.6	28002
 546.2	27983
 546.7	27879
 547.3	27943
 547.8	27917
 548.3	27947
 548.9	27847
 549.4	27839
 550.0	27803
 550.5	27862
 551.0	27887
 551.6	27835
 552.1	27846
 552.6	27851
 553.2	27795
 553.7	27779
 554.3	27810
 554.8	27891
 555.3	27742
 555.9	27817
 556.4	27799
 556.9	27920
 557.5	27953
 558.0	27930
 558.6	27929
 559.1	28003
 559.6	28011
 560.2	28045
 560.7	28073
 561.3	28057
 561.8	28061
 562.3	28212
 562.9	28212
 563.4	28269
 563.9	28275
 564.5	28306
 565.0	28309
 565.6	28341
 566.1	28359
 566.6	28371
 567.2	28368
 567.7	28467
 568.2	28404
 568.8	28415
 569.3	28413
 569.9	28470
 570.4	28455
 570.9	28446
 571.5	28449
 572.0	28451
 572.5	28513
 573.1	28472
 573.6	28549
 574.1	28542
 574.7	28560
 575.2	28555
 575.8	28621
 576.3	28712
 576.8	28693
 577.4	28728
 577.9	28769
 578.4	28765
 579.0	28801
 579.5	28936
 580.1	28885
 580.6	28933
 581.1	29039
 581.7	29093
 582.2	29070
 582.7	29130
 583.3	29195
 583.8	29198
 584.3	29175
 584.9	29247
 585.4	29269
 586.0	29275
 586.5	29329
 587.0	29322
 587.6	29407
 588.1	29379
 588.6	29459
 589.2	29413
 589.7	29441
 590.2	29445
 590.8	29431
 591.3	29459
 591.9	29389
 592.4	29435
 592.9	29367
 593.5	29345
 594.0	29315
 594.5	29310
 595.1	29266
 595.6	29206
 596.1	29243
 596.7	29187
 597.2	29199
 597.7	29120
 598.3	29115
 598.8	29064
 599.3	29042
 599.9	28977
 600.4	28954
 601.0	28943
 601.5	28915
 602.0	28897
 602.6	28845
 603.1	28855
 603.6	28861
 604.2	28949
 604.7	28877
 605.2	28948
 605.8	28872
 606.3	28911
 606.8	28993
 607.4	29002
 607.9	29066
 608.4	29031
 609.0	29093
 609.5	29157
 610.0	29162
 610.6	29277
 611.1	29223
 611.6	29308
 612.2	29337
 612.7	29425
 613.2	29453
 613.8	29427
 614.3	29509
 614.8	29584
 615.4	29575
 615.9	29717
 616.4	29822
 617.0	29821
 617.5	29944
 618.0	30021
 618.6	30029
 619.1	30120
 619.6	30245
 620.2	30326
 620.7	30458
 621.2	30481
 621.8	30566
 622.3	30651
 622.8	30689
 623.4	30757
 623.9	30857
 624.4	30867
 625.0	30894
 625.5	30900
 626.0	30933
 626.6	31000
 627.1	30980
 627.6	30935
 628.2	30903
 628.7	30943
 629.2	30919
 629.8	30930
 630.3	30911
 630.8	30879
 631.4	30820
 631.9	30805
 632.4	30665
 632.9	30639
 633.5	30600
 634.0	30523
 634.5	30535
 635.1	30440
 635.6	30397
 636.1	30340
 636.7	30315
 637.2	30277
 637.7	30141
 638.3	30209
 638.8	30159
 639.3	30150
 639.8	30053
 640.4	30045
 640.9	30047
 641.4	29938
 642.0	29901
 642.5	29895
 643.0	29855
 643.6	29942
 644.1	29881
 644.6	29895
 645.1	29908
 645.7	29907
 646.2	29860
 646.7	29887
 647.3	29915
 647.8	29941
 648.3	29917
 648.9	29972
 649.4	29898
 649.9	29977
 650.4	30017
 651.0	30085
 651.5	30114
 652.0	30190
 652.6	30170
 653.1	30273
 653.6	30215
 654.1	30306
 654.7	30302
 655.2	30417
 655.7	30475
 656.3	30518
 656.8	30503
 657.3	30575
 657.8	30561
 658.4	30595
 658.9	30639
 659.4	30727
 659.9	30743
 660.5	30738
 661.0	30791
 661.5	30852
 662.1	30829
 662.6	30855
 663.1	30832
 663.6	30925
 664.2	30877
 664.7	30861
 665.2	30801
 665.7	30912
 666.3	30872
 666.8	30865
 667.3	30870
 667.8	30832
 668.4	30841
 668.9	30849
 669.4	30817
 669.9	30828
 670.5	30751
 671.0	30763
 671.5	30712
 672.0	30748
 672.6	30723
 673.1	30745
 673.6	30643
 674.1	30657
 674.7	30637
 675.2	30669
 675.7	30529
 676.2	30507
 676.8	30557
 677.3	30549
 677.8	30465
 678.3	30551
 678.9	30471
 679.4	30405
 679.9	30447
 680.4	30435
 681.0	30390
 681.5	30406
 682.0	30351
 682.5	30382
 683.1	30281
 683.6	30303
 684.1	30239
 684.6	30336
 685.1	30275
 685.7	30282
 686.2	30262
 686.7	30217
 687.2	30202
 687.8	30269
 688.3	30209
 688.8	30224
 689.3	30166
 689.8	30200
 690.4	30187
 690.9	30197
 691.4	30219
 691.9	30221
 692.4	30205
 693.0	30269
 693.5	30234
 694.0	30227
 694.5	30220
 695.1	30199
 695.6	30167
 696.1	30235
 696.6	30228
 697.1	30245
 697.7	30265
 698.2	30201
 698.7	30228
 699.2	30188
 699.7	30195
 700.3	30148
 700.8	30129
 701.3	30207
 701.8	30170
 702.3	30104
 702.8	30110
 703.4	30089
 703.9	30059
 704.4	30021
 704.9	29979
 705.4	29973
 706.0	30028
 706.5	30000
 707.0	29900
 707.5	29873
 708.0	29871
 708.5	29803
 709.1	29847
 709.6	29791
 710.1	29725
 710.6	29689
 711.1	29646
 711.7	29637
 712.2	29598
 712.7	29586
 713.2	29526
 713.7	29493
 714.2	29414
 714.8	29464
 715.3	29377
 715.8	29335
 716.3	29317
 716.8	29213
 717.3	29169
 717.8	29244
 718.4	29241
 718.9	29165
 719.4	29235
 719.9	29129
 720.4	29168
 720.9	29196
 721.4	29188
 722.0	29227
 722.5	29215
 723.0	29224
 723.5	29255
 724.0	29238
 724.5	29234
 725.0	29290
 725.6	29240
 726.1	29314
 726.6	29436
 727.1	29389
 727.6	29448
 728.1	29490
 728.6	29464
 729.1	29475
 729.7	29469
 730.2	29507
 730.7	29541
 731.2	29594
 731.7	29597
 732.2	29619
 732.7	29593
 733.2	29655
 733.8	29622
 734.3	29662
 734.8	29658
 735.3	29699
 735.8	29703
 736.3	29697
 736.8	29759
 737.3	29820
 737.8	29783
 738.4	29787
 738.9	29747
 739.4	29845
 739.9	29838
 740.4	29868
 740.9	29854
 741.4	29859
 741.9	29857
 742.4	29875
 742.9	29863
 743.4	29941
 744.0	29843
 744.5	29837
 745.0	29844
 745.5	29909
 746.0	29879
 746.5	29881
 747.0	29815
 747.5	29790
 748.0	29755
 748.5	29773
 749.0	29769
 749.5	29838
 750.0	29665
 750.5	29700
 751.1	29684
 751.6	29666
 752.1	29634
 752.6	29590
 753.1	29607
 753.6	29520
 754.1	29483
 754.6	29497
 755.1	29426
 755.6	29413
 756.1	29304
 756.6	29373
 757.1	29327
 757.6	29281
 758.1	29217
 758.6	29191
 759.1	29093
 759.6	29111
 760.1	29034
 760.7	28954
 761.2	29015
 761.7	28947
 762.2	28902
 762.7	28913
 763.2	28764
 763.7	28815
 764.2	28723
 764.7	28685
 765.2	28687
 765.7	28619
 766.2	28555
 766.7	28556
 767.2	28471
 767.7	28443
 768.2	28394
 768.7	28327
 769.2	28287
 769.7	28301
 770.2	28247
 770.7	28225
 771.2	28171
 771.7	28133
 772.2	28122
 772.7	28146
 773.2	28104
 773.7	28035
 774.2	27978
 774.7	27996
 775.2	27961
 775.7	27923
 776.2	27898
 776.7	27919
 777.2	27828
 777.7	27887
 778.2	27847
 778.7	27884
 779.2	27871
 779.7	27888
 780.2	27721
 780.7	27778
 781.2	27765
 781.7	27817
 782.2	27743
 782.6	27804
 783.1	27791
 783.6	27745
 784.1	27699
 784.6	27690
 785.1	27695
 785.6	27685
 786.1	27699
 786.6	27707
 787.1	27652
 787.6	27632
 788.1	27614
 788.6	27600
 789.1	27573
 789.6	27585
 790.1	27592
 790.6	27573
 791.1	27465
 791.6	27451
 792.0	27445
 792.5	27457
 793.0	27415
 793.5	27394
 794.0	27313
 794.5	27379
 795.0	27313
 795.5	27287
 796.0	27263
 796.5	27181
 797.0	27179
 797.5	27193
 798.0	27014
 798.4	27015
 798.9	26967
 799.4	26949
 799.9	26917
 800.4	26755
 800.9	26817
 801.4	26828
 801.9	26757
 802.4	26637
 802.9	26659
 803.3	26615
 803.8	26539
 804.3	26459
 804.8	26472
 805.3	26401
 805.8	26329
 806.3	26283
 806.8	26235
 807.2	26179
 807.7	26120
 808.2	26098
 808.7	25981
 809.2	25953
 809.7	25855
 810.2	25880
 810.7	25779
 811.1	25753
 811.6	25718
 812.1	25630
 812.6	25559
 813.1	25573
 813.6	25554
 814.1	25511
 814.5	25433
 815.0	25424
 815.5	25353
 816.0	25281
 816.5	25311
 817.0	25233
 817.4	25195
 817.9	25193
 818.4	25094
 818.9	25156
 819.4	25086
 819.9	25037
 820.3	24982
 820.8	24968
 821.3	24946
 821.8	24935
 822.3	24844
 822.7	24808
 823.2	24852
 823.7	24788
 824.2	24766
 824.7	24726
 825.2	24722
 825.6	24682
 826.1	24654
 826.6	24693
 827.1	24655
 827.6	24643
 828.0	24565
 828.5	24525
 829.0	24551
 829.5	24479
 829.9	24467
 830.4	24513
 830.9	24468
 831.4	24497
 831.9	24432
 832.3	24493
 832.8	24417
 833.3	24410
 833.8	24479
 834.2	24459
 834.7	24291
 835.2	24378
 835.7	24369
 836.1	24359
 836.6	24327
 837.1	24314
 837.6	24311
 838.0	24335
 838.5	24345
 839.0	24338
 839.5	24328
 839.9	24237
 840.4	24234
 840.9	24190
 841.4	24213
 841.8	24242
 842.3	24239
 842.8	24244
 843.3	24233
 843.7	24116
 844.2	24100
 844.7	24170
 845.1	24131
 845.6	24049
 846.1	24053
 846.6	24082
 847.0	23974
 847.5	24007
 848.0	23979
 848.4	24006
 848.9	23955
 849.4	23921
 849.8	23923
 850.3	23915
 850.8	23950
 851.3	23892
 851.7	23869
 852.2	23861
 852.7	23840
 853.1	23810
 853.6	23735
 854.1	23765
 854.5	23711
 855.0	23684
 855.5	23665
 855.9	23706
 856.4	23671
 856.9	23570
 857.3	23606
 857.8	23553
 858.3	23561
 858.7	23494
 859.2	23504
 859.7	23500
 860.1	23534
 860.6	23493
 861.1	23401
 861.5	23433
 862.0	23413
 862.4	23359
 862.9	23300
 863.4	23319
 863.8	23303
 864.3	23271
 864.8	23173
 865.2	23195
 865.7	23193
 866.1	23195
 866.6	23089
 867.1	23151
 867.5	23119
 868.0	23082
 868.5	23020
 868.9	23005
 869.4	23090
 869.8	23036
 870.3	22979
 870.8	23045
 871.2	22991
 871.7	22982
 872.1	22928
 872.6	22972
 873.0	22936
 873.5	23007
 874.0	22981
 874.4	22855
 874.9	22867
 875.3	22797
 875.8	22671
 876.2	22433
 876.7	22249
 877.2	21891
 877.6	21445
 878.1	21011
