#xlabel Wavelength (nm)
#ylabel Spectrometer Array Counts
#title Exposure time is 11000 ms
## lambda	counts
 349.8	18403
 350.3	18670
 350.8	18936
 351.3	19149
 351.9	19264
 352.4	19391
 352.9	19478
 353.4	19445
 354.0	19449
 354.5	19491
 355.0	19500
 355.5	19513
 356.0	19470
 356.6	19439
 357.1	19488
 357.6	19465
 358.1	19496
 358.7	19436
 359.2	19456
 359.7	19474
 360.2	19519
 360.8	19490
 361.3	19592
 361.8	19538
 362.3	19576
 362.9	19527
 363.4	19615
 363.9	19618
 364.4	19648
 364.9	19553
 365.5	19635
 366.0	19627
 366.5	19575
 367.0	19626
 367.6	19658
 368.1	19662
 368.6	19591
 369.1	19657
 369.7	19712
 370.2	19639
 370.7	19643
 371.2	19693
 371.8	19751
 372.3	19675
 372.8	19765
 373.3	19784
 373.9	19722
 374.4	19752
 374.9	19807
 375.5	19694
 376.0	19831
 376.5	19798
 377.0	19833
 377.6	19777
 378.1	19874
 378.6	19813
 379.1	19817
 379.7	19806
 380.2	19893
 380.7	19896
 381.2	19866
 381.8	19864
 382.3	19909
 382.8	19895
 383.4	19947
 383.9	19902
 384.4	20059
 384.9	19968
 385.5	19987
 386.0	19995
 386.5	20073
 387.1	20007
 387.6	20037
 388.1	20039
 388.6	20063
 389.2	20055
 389.7	20089
 390.2	20078
 390.8	20183
 391.3	20155
 391.8	20170
 392.3	20164
 392.9	20178
 393.4	20179
 393.9	20267
 394.5	20281
 395.0	20242
 395.5	20272
 396.0	20287
 396.6	20257
 397.1	20366
 397.6	20367
 398.2	20374
 398.7	20381
 399.2	20482
 399.8	20347
 400.3	20424
 400.8	20471
 401.3	20445
 401.9	20467
 402.4	20489
 402.9	20489
 403.5	20526
 404.0	20518
 404.5	20486
 405.1	20497
 405.6	20615
 406.1	20599
 406.7	20617
 407.2	20637
 407.7	20739
 408.2	20748
 408.8	20761
 409.3	20808
 409.8	20867
 410.4	20844
 410.9	20867
 411.4	20819
 412.0	20899
 412.5	20964
 413.0	20921
 413.6	20978
 414.1	20947
 414.6	20989
 415.2	21048
 415.7	20994
 416.2	21055
 416.8	21054
 417.3	21052
 417.8	21077
 418.4	21180
 418.9	21129
 419.4	21275
 420.0	21169
 420.5	21247
 421.0	21196
 421.5	21292
 422.1	21279
 422.6	21345
 423.1	21380
 423.7	21353
 424.2	21349
 424.7	21392
 425.3	21380
 425.8	21403
 426.3	21397
 426.9	21469
 427.4	21415
 427.9	21541
 428.5	21495
 429.0	21547
 429.6	21519
 430.1	21622
 430.6	21644
 431.2	21606
 431.7	21740
 432.2	21728
 432.8	21727
 433.3	21859
 433.8	21897
 434.4	21890
 434.9	21934
 435.4	22002
 436.0	22004
 436.5	22027
 437.0	22119
 437.6	22109
 438.1	22172
 438.6	22191
 439.2	22224
 439.7	22219
 440.2	22168
 440.8	22196
 441.3	22202
 441.8	22209
 442.4	22181
 442.9	22210
 443.5	22242
 444.0	22237
 444.5	22266
 445.1	22179
 445.6	22224
 446.1	22267
 446.7	22301
 447.2	22328
 447.7	22330
 448.3	22428
 448.8	22423
 449.3	22487
 449.9	22469
 450.4	22610
 450.9	22683
 451.5	22720
 452.0	22732
 452.6	22785
 453.1	22889
 453.6	22935
 454.2	22861
 454.7	22969
 455.2	23020
 455.8	23103
 456.3	23064
 456.8	23211
 457.4	23163
 457.9	23189
 458.5	23242
 459.0	23212
 459.5	23257
 460.1	23212
 460.6	23266
 461.1	23257
 461.7	23311
 462.2	23254
 462.7	23298
 463.3	23228
 463.8	23302
 464.4	23369
 464.9	23319
 465.4	23403
 466.0	23319
 466.5	23403
 467.0	23353
 467.6	23436
 468.1	23549
 468.7	23505
 469.2	23457
 469.7	23583
 470.3	23589
 470.8	23658
 471.3	23655
 471.9	23652
 472.4	23731
 473.0	23802
 473.5	23849
 474.0	23871
 474.6	23902
 475.1	23921
 475.6	24024
 476.2	24047
 476.7	24044
 477.3	24129
 477.8	24086
 478.3	24027
 478.9	24263
 479.4	24174
 479.9	24204
 480.5	24212
 481.0	24270
 481.6	24318
 482.1	24409
 482.6	24409
 483.2	24451
 483.7	24585
 484.2	24557
 484.8	24421
 485.3	24544
 485.9	24639
 486.4	24629
 486.9	24677
 487.5	24655
 488.0	24690
 488.6	24773
 489.1	24807
 489.6	24871
 490.2	24890
 490.7	24869
 491.2	24844
 491.8	24923
 492.3	24873
 492.9	24933
 493.4	24943
 493.9	24969
 494.5	24967
 495.0	25033
 495.6	24950
 496.1	24955
 496.6	25006
 497.2	24916
 497.7	24887
 498.2	24967
 498.8	24979
 499.3	24907
 499.9	24958
 500.4	24957
 500.9	24955
 501.5	24963
 502.0	25062
 502.6	25058
 503.1	25179
 503.6	25174
 504.2	25168
 504.7	25213
 505.2	25313
 505.8	25347
 506.3	25493
 506.9	25561
 507.4	25585
 507.9	25617
 508.5	25707
 509.0	25811
 509.6	25941
 510.1	25964
 510.6	26054
 511.2	26125
 511.7	26170
 512.2	26278
 512.8	26355
 513.3	26359
 513.9	26383
 514.4	26463
 514.9	26574
 515.5	26479
 516.0	26567
 516.6	26527
 517.1	26572
 517.6	26545
 518.2	26507
 518.7	26428
 519.3	26461
 519.8	26465
 520.3	26435
 520.9	26367
 521.4	26352
 521.9	26374
 522.5	26265
 523.0	26252
 523.6	26277
 524.1	26117
 524.6	26152
 525.2	26175
 525.7	26223
 526.3	26156
 526.8	26260
 527.3	26213
 527.9	26261
 528.4	26264
 528.9	26351
 529.5	26393
 530.0	26423
 530.6	26510
 531.1	26559
 531.6	26521
 532.2	26680
 532.7	26705
 533.3	26801
 533.8	26982
 534.3	27079
 534.9	27134
 535.4	27149
 536.0	27278
 536.5	27369
 537.0	27396
 537.6	27472
 538.1	27576
 538.6	27643
 539.2	27628
 539.7	27697
 540.3	27823
 540.8	27823
 541.3	27814
 541.9	27877
 542.4	27887
 543.0	27973
 543.5	27942
 544.0	27925
 544.6	27967
 545.1	27987
 545.6	28007
 546.2	27996
 546.7	27887
 547.3	27950
 547.8	27922
 548.3	27958
 548.9	27859
 549.4	27854
 550.0	27810
 550.5	27871
 551.0	27904
 551.6	27848
 552.1	27854
 552.6	27855
 553.2	27800
 553.7	27781
 554.3	27823
 554.8	27893
 555.3	27751
 555.9	27822
 556.4	27804
 556.9	27927
 557.5	27958
 558.0	27932
 558.6	27933
 559.1	28014
 559.6	28024
 560.2	28057
 560.7	28084
 561.3	28073
 561.8	28071
 562.3	28217
 562.9	28215
 563.4	28281
 563.9	28282
 564.5	28319
 565.0	28318
 565.6	28360
 566.1	28369
 566.6	28389
 567.2	28381
 567.7	28480
 568.2	28418
 568.8	28429
 569.3	28421
 569.9	28484
 570.4	28469
 570.9	28453
 571.5	28456
 572.0	28463
 572.5	28526
 573.1	28485
 573.6	28564
 574.1	28554
 574.7	28578
 575.2	28565
 575.8	28629
 576.3	28725
 576.8	28706
 577.4	28739
 577.9	28779
 578.4	28781
 579.0	28815
 579.5	28948
 580.1	28895
 580.6	28950
 581.1	29050
 581.7	29106
 582.2	29072
 582.7	29141
 583.3	29203
 583.8	29209
 584.3	29184
 584.9	29263
 585.4	29279
 586.0	29290
 586.5	29341
 587.0	29330
 587.6	29425
 588.1	29393
 588.6	29473
 589.2	29425
 589.7	29457
 590.2	29459
 590.8	29444
 591.3	29475
 591.9	29407
 592.4	29456
 592.9	29379
 593.5	29355
 594.0	29332
 594.5	29325
 595.1	29269
 595.6	29219
 596.1	29256
 596.7	29197
 597.2	29215
 597.7	29126
 598.3	29123
 598.8	29073
 599.3	29055
 599.9	28988
 600.4	28964
 601.0	28950
 601.5	28929
 602.0	28903
 602.6	28853
 603.1	28864
 603.6	28876
 604.2	28963
 604.7	28881
 605.2	28957
 605.8	28883
 606.3	28921
 606.8	29011
 607.4	29015
 607.9	29077
 608.4	29039
 609.0	29101
 609.5	29169
 610.0	29171
 610.6	29284
 611.1	29233
 611.6	29319
 612.2	29347
 612.7	29438
 613.2	29475
 613.8	29445
 614.3	29515
 614.8	29600
 615.4	29590
 615.9	29727
 616.4	29841
 617.0	29831
 617.5	29957
 618.0	30035
 618.6	30043
 619.1	30133
 619.6	30260
 620.2	30331
 620.7	30468
 621.2	30497
 621.8	30585
 622.3	30673
 622.8	30700
 623.4	30772
 623.9	30875
 624.4	30885
 625.0	30915
 625.5	30917
 626.0	30949
 626.6	31016
 627.1	30997
 627.6	30954
 628.2	30916
 628.7	30963
 629.2	30942
 629.8	30947
 630.3	30927
 630.8	30898
 631.4	30841
 631.9	30819
 632.4	30674
 632.9	30653
 633.5	30613
 634.0	30542
 634.5	30551
 635.1	30458
 635.6	30416
 636.1	30344
 636.7	30337
 637.2	30294
 637.7	30153
 638.3	30223
 638.8	30171
 639.3	30158
 639.8	30063
 640.4	30057
 640.9	30055
 641.4	29945
 642.0	29912
 642.5	29907
 643.0	29870
 643.6	29950
 644.1	29897
 644.6	29909
 645.1	29918
 645.7	29926
 646.2	29871
 646.7	29901
 647.3	29925
 647.8	29946
 648.3	29928
 648.9	29982
 649.4	29912
 649.9	29995
 650.4	30030
 651.0	30094
 651.5	30128
 652.0	30204
 652.6	30181
 653.1	30293
 653.6	30228
 654.1	30314
 654.7	30314
 655.2	30430
 655.7	30489
 656.3	30531
 656.8	30511
 657.3	30591
 657.8	30573
 658.4	30607
 658.9	30648
 659.4	30737
 659.9	30762
 660.5	30747
 661.0	30804
 661.5	30869
 662.1	30845
 662.6	30869
 663.1	30845
 663.6	30938
 664.2	30887
 664.7	30871
 665.2	30810
 665.7	30924
 666.3	30888
 666.8	30884
 667.3	30883
 667.8	30847
 668.4	30857
 668.9	30859
 669.4	30825
 669.9	30843
 670.5	30763
 671.0	30777
 671.5	30726
 672.0	30750
 672.6	30736
 673.1	30759
 673.6	30658
 674.1	30673
 674.7	30654
 675.2	30675
 675.7	30541
 676.2	30513
 676.8	30568
 677.3	30559
 677.8	30479
 678.3	30559
 678.9	30482
 679.4	30411
 679.9	30461
 680.4	30443
 681.0	30394
 681.5	30421
 682.0	30359
 682.5	30397
 683.1	30295
 683.6	30318
 684.1	30257
 684.6	30341
 685.1	30279
 685.7	30300
 686.2	30270
 686.7	30219
 687.2	30215
 687.8	30279
 688.3	30219
 688.8	30234
 689.3	30175
 689.8	30207
 690.4	30191
 690.9	30211
 691.4	30229
 691.9	30229
 692.4	30216
 693.0	30275
 693.5	30245
 694.0	30230
 694.5	30231
 695.1	30210
 695.6	30177
 696.1	30245
 696.6	30234
 697.1	30253
 697.7	30281
 698.2	30210
 698.7	30236
 699.2	30199
 699.7	30204
 700.3	30155
 700.8	30135
 701.3	30217
 701.8	30178
 702.3	30114
 702.8	30111
 703.4	30096
 703.9	30066
 704.4	30029
 704.9	29985
 705.4	29985
 706.0	30038
 706.5	30007
 707.0	29900
 707.5	29871
 708.0	29879
 708.5	29817
 709.1	29857
 709.6	29801
 710.1	29725
 710.6	29691
 711.1	29653
 711.7	29645
 712.2	29607
 712.7	29593
 713.2	29529
 713.7	29499
 714.2	29421
 714.8	29471
 715.3	29383
 715.8	29349
 716.3	29323
 716.8	29217
 717.3	29178
 717.8	29253
 718.4	29249
 718.9	29167
 719.4	29239
 719.9	29135
 720.4	29182
 720.9	29200
 721.4	29193
 722.0	29225
 722.5	29222
 723.0	29230
 723.5	29250
 724.0	29235
 724.5	29241
 725.0	29291
 725.6	29247
 726.1	29319
 726.6	29448
 727.1	29401
 727.6	29459
 728.1	29497
 728.6	29467
 729.1	29479
 729.7	29475
 730.2	29515
 730.7	29551
 731.2	29596
 731.7	29595
 732.2	29619
 732.7	29602
 733.2	29655
 733.8	29631
 734.3	29674
 734.8	29665
 735.3	29704
 735.8	29711
 736.3	29705
 736.8	29762
 737.3	29829
 737.8	29789
 738.4	29794
 738.9	29758
 739.4	29857
 739.9	29846
 740.4	29876
 740.9	29858
 741.4	29866
 741.9	29859
 742.4	29887
 742.9	29874
 743.4	29950
 744.0	29852
 744.5	29850
 745.0	29847
 745.5	29915
 746.0	29884
 746.5	29892
 747.0	29821
 747.5	29793
 748.0	29760
 748.5	29777
 749.0	29770
 749.5	29845
 750.0	29669
 750.5	29701
 751.1	29685
 751.6	29674
 752.1	29633
 752.6	29590
 753.1	29614
 753.6	29523
 754.1	29479
 754.6	29505
 755.1	29433
 755.6	29418
 756.1	29313
 756.6	29379
 757.1	29329
 757.6	29286
 758.1	29227
 758.6	29197
 759.1	29099
 759.6	29114
 760.1	29037
 760.7	28964
 761.2	29016
 761.7	28943
 762.2	28903
 762.7	28915
 763.2	28768
 763.7	28810
 764.2	28719
 764.7	28689
 765.2	28686
 765.7	28618
 766.2	28553
 766.7	28557
 767.2	28475
 767.7	28447
 768.2	28396
 768.7	28328
 769.2	28287
 769.7	28302
 770.2	28251
 770.7	28225
 771.2	28171
 771.7	28135
 772.2	28125
 772.7	28149
 773.2	28109
 773.7	28035
 774.2	27979
 774.7	27990
 775.2	27953
 775.7	27925
 776.2	27894
 776.7	27915
 777.2	27829
 777.7	27881
 778.2	27849
 778.7	27883
 779.2	27869
 779.7	27885
 780.2	27723
 780.7	27779
 781.2	27767
 781.7	27822
 782.2	27736
 782.6	27803
 783.1	27790
 783.6	27750
 784.1	27703
 784.6	27688
 785.1	27691
 785.6	27691
 786.1	27697
 786.6	27705
 787.1	27651
 787.6	27632
 788.1	27613
 788.6	27593
 789.1	27569
 789.6	27577
 790.1	27589
 790.6	27567
 791.1	27463
 791.6	27449
 792.0	27439
 792.5	27458
 793.0	27414
 793.5	27387
 794.0	27308
 794.5	27377
 795.0	27311
 795.5	27279
 796.0	27258
 796.5	27179
 797.0	27173
 797.5	27187
 798.0	27009
 798.4	27003
 798.9	26961
 799.4	26942
 799.9	26917
 800.4	26751
 800.9	26813
 801.4	26829
 801.9	26744
 802.4	26631
 802.9	26651
 803.3	26606
 803.8	26535
 804.3	26452
 804.8	26461
 805.3	26388
 805.8	26318
 806.3	26278
 806.8	26223
 807.2	26176
 807.7	26109
 808.2	26090
 808.7	25974
 809.2	25951
 809.7	25841
 810.2	25871
 810.7	25767
 811.1	25745
 811.6	25706
 812.1	25621
 812.6	25550
 813.1	25563
 813.6	25549
 814.1	25499
 814.5	25421
 815.0	25415
 815.5	25335
 816.0	25269
 816.5	25298
 817.0	25220
 817.4	25183
 817.9	25186
 818.4	25087
 818.9	25144
 819.4	25077
 819.9	25024
 820.3	24975
 820.8	24946
 821.3	24939
 821.8	24925
 822.3	24833
 822.7	24789
 823.2	24835
 823.7	24773
 824.2	24764
 824.7	24717
 825.2	24709
 825.6	24671
 826.1	24639
 826.6	24680
 827.1	24638
 827.6	24626
 828.0	24555
 828.5	24512
 829.0	24538
 829.5	24464
 829.9	24456
 830.4	24498
 830.9	24460
 831.4	24481
 831.9	24419
 832.3	24479
 832.8	24402
 833.3	24398
 833.8	24459
 834.2	24447
 834.7	24281
 835.2	24364
 835.7	24361
 836.1	24345
 836.6	24306
 837.1	24306
 837.6	24301
 838.0	24323
 838.5	24335
 839.0	24332
 839.5	24312
 839.9	24225
 840.4	24229
 840.9	24177
 841.4	24208
 841.8	24223
 842.3	24223
 842.8	24229
 843.3	24215
 843.7	24111
 844.2	24085
 844.7	24153
 845.1	24118
 845.6	24033
 846.1	24046
 846.6	24066
 847.0	23956
 847.5	23999
 848.0	23964
 848.4	23993
 848.9	23938
 849.4	23901
 849.8	23913
 850.3	23895
 850.8	23928
 851.3	23877
 851.7	23856
 852.2	23841
 852.7	23818
 853.1	23787
 853.6	23723
 854.1	23749
 854.5	23694
 855.0	23665
 855.5	23645
 855.9	23685
 856.4	23650
 856.9	23555
 857.3	23593
 857.8	23533
 858.3	23543
 858.7	23480
 859.2	23489
 859.7	23478
 860.1	23519
 860.6	23474
 861.1	23387
 861.5	23415
 862.0	23391
 862.4	23339
 862.9	23287
 863.4	23303
 863.8	23283
 864.3	23255
 864.8	23156
 865.2	23183
 865.7	23173
 866.1	23178
 866.6	23073
 867.1	23131
 867.5	23101
 868.0	23064
 868.5	23001
 868.9	22975
 869.4	23069
 869.8	23011
 870.3	22957
 870.8	23017
 871.2	22959
 871.7	22948
 872.1	22893
 872.6	22937
 873.0	22908
 873.5	22978
 874.0	22961
 874.4	22848
 874.9	22872
 875.3	22821
 875.8	22705
 876.2	22471
 876.7	22287
 877.2	21919
 877.6	21462
 878.1	20999
