#xlabel Wavelength (nm)
#ylabel Spectrometer Array Counts
#title Exposure time is 11000 ms
## lambda	counts
 349.8	18220
 350.3	18503
 350.8	18766
 351.3	18971
 351.9	19077
 352.4	19194
 352.9	19263
 353.4	19219
 354.0	19214
 354.5	19250
 355.0	19247
 355.5	19264
 356.0	19226
 356.6	19185
 357.1	19241
 357.6	19214
 358.1	19239
 358.7	19172
 359.2	19191
 359.7	19206
 360.2	19243
 360.8	19201
 361.3	19297
 361.8	19236
 362.3	19261
 362.9	19209
 363.4	19287
 363.9	19290
 364.4	19315
 364.9	19211
 365.5	19290
 366.0	19270
 366.5	19215
 367.0	19257
 367.6	19285
 368.1	19282
 368.6	19206
 369.1	19261
 369.7	19309
 370.2	19229
 370.7	19225
 371.2	19263
 371.8	19317
 372.3	19227
 372.8	19308
 373.3	19317
 373.9	19253
 374.4	19261
 374.9	19315
 375.5	19191
 376.0	19315
 376.5	19272
 377.0	19291
 377.6	19231
 378.1	19313
 378.6	19237
 379.1	19230
 379.7	19204
 380.2	19274
 380.7	19273
 381.2	19218
 381.8	19203
 382.3	19242
 382.8	19218
 383.4	19264
 383.9	19207
 384.4	19358
 384.9	19259
 385.5	19277
 386.0	19273
 386.5	19343
 387.1	19265
 387.6	19291
 388.1	19282
 388.6	19293
 389.2	19268
 389.7	19289
 390.2	19259
 390.8	19345
 391.3	19299
 391.8	19290
 392.3	19272
 392.9	19254
 393.4	19235
 393.9	19302
 394.5	19290
 395.0	19230
 395.5	19244
 396.0	19237
 396.6	19195
 397.1	19289
 397.6	19277
 398.2	19276
 398.7	19268
 399.2	19362
 399.8	19227
 400.3	19291
 400.8	19333
 401.3	19294
 401.9	19305
 402.4	19321
 402.9	19305
 403.5	19325
 404.0	19302
 404.5	19248
 405.1	19243
 405.6	19331
 406.1	19294
 406.7	19294
 407.2	19295
 407.7	19361
 408.2	19348
 408.8	19335
 409.3	19358
 409.8	19393
 410.4	19343
 410.9	19341
 411.4	19280
 412.0	19331
 412.5	19377
 413.0	19315
 413.6	19356
 414.1	19307
 414.6	19334
 415.2	19371
 415.7	19297
 416.2	19341
 416.8	19319
 417.3	19289
 417.8	19303
 418.4	19388
 418.9	19313
 419.4	19444
 420.0	19314
 420.5	19377
 421.0	19309
 421.5	19388
 422.1	19356
 422.6	19405
 423.1	19427
 423.7	19385
 424.2	19366
 424.7	19392
 425.3	19365
 425.8	19383
 426.3	19354
 426.9	19411
 427.4	19345
 427.9	19451
 428.5	19383
 429.0	19418
 429.6	19359
 430.1	19431
 430.6	19411
 431.2	19336
 431.7	19421
 432.2	19374
 432.8	19334
 433.3	19432
 433.8	19423
 434.4	19379
 434.9	19379
 435.4	19414
 436.0	19385
 436.5	19365
 437.0	19431
 437.6	19395
 438.1	19442
 438.6	19441
 439.2	19463
 439.7	19445
 440.2	19386
 440.8	19417
 441.3	19416
 441.8	19417
 442.4	19383
 442.9	19407
 443.5	19439
 444.0	19433
 444.5	19457
 445.1	19359
 445.6	19391
 446.1	19407
 446.7	19421
 447.2	19428
 447.7	19399
 448.3	19463
 448.8	19405
 449.3	19431
 449.9	19364
 450.4	19444
 450.9	19473
 451.5	19453
 452.0	19402
 452.6	19404
 453.1	19443
 453.6	19441
 454.2	19315
 454.7	19377
 455.2	19385
 455.8	19417
 456.3	19345
 456.8	19471
 457.4	19383
 457.9	19386
 458.5	19431
 459.0	19379
 459.5	19414
 460.1	19361
 460.6	19417
 461.1	19390
 461.7	19439
 462.2	19386
 462.7	19430
 463.3	19353
 463.8	19429
 464.4	19491
 464.9	19430
 465.4	19491
 466.0	19382
 466.5	19447
 467.0	19370
 467.6	19427
 468.1	19510
 468.7	19429
 469.2	19349
 469.7	19428
 470.3	19397
 470.8	19426
 471.3	19391
 471.9	19335
 472.4	19380
 473.0	19411
 473.5	19415
 474.0	19404
 474.6	19401
 475.1	19378
 475.6	19439
 476.2	19447
 476.7	19411
 477.3	19467
 477.8	19392
 478.3	19313
 478.9	19518
 479.4	19386
 479.9	19390
 480.5	19367
 481.0	19383
 481.6	19398
 482.1	19443
 482.6	19414
 483.2	19413
 483.7	19523
 484.2	19443
 484.8	19262
 485.3	19355
 485.9	19427
 486.4	19379
 486.9	19387
 487.5	19338
 488.0	19331
 488.6	19385
 489.1	19385
 489.6	19438
 490.2	19427
 490.7	19372
 491.2	19342
 491.8	19391
 492.3	19336
 492.9	19388
 493.4	19392
 493.9	19407
 494.5	19411
 495.0	19477
 495.6	19393
 496.1	19406
 496.6	19468
 497.2	19383
 497.7	19346
 498.2	19436
 498.8	19466
 499.3	19377
 499.9	19425
 500.4	19416
 500.9	19403
 501.5	19378
 502.0	19438
 502.6	19405
 503.1	19491
 503.6	19443
 504.2	19379
 504.7	19372
 505.2	19421
 505.8	19397
 506.3	19464
 506.9	19453
 507.4	19395
 507.9	19359
 508.5	19369
 509.0	19393
 509.6	19443
 510.1	19390
 510.6	19419
 511.2	19424
 511.7	19387
 512.2	19446
 512.8	19448
 513.3	19395
 513.9	19380
 514.4	19429
 514.9	19497
 515.5	19392
 516.0	19461
 516.6	19433
 517.1	19487
 517.6	19471
 518.2	19445
 518.7	19385
 519.3	19447
 519.8	19503
 520.3	19500
 520.9	19457
 521.4	19470
 521.9	19537
 522.5	19465
 523.0	19498
 523.6	19537
 524.1	19378
 524.6	19441
 525.2	19470
 525.7	19502
 526.3	19415
 526.8	19503
 527.3	19441
 527.9	19459
 528.4	19435
 528.9	19484
 529.5	19492
 530.0	19462
 530.6	19502
 531.1	19492
 531.6	19391
 532.2	19499
 532.7	19440
 533.3	19453
 533.8	19565
 534.3	19585
 534.9	19563
 535.4	19490
 536.0	19547
 536.5	19577
 537.0	19522
 537.6	19530
 538.1	19569
 538.6	19573
 539.2	19499
 539.7	19502
 540.3	19594
 540.8	19549
 541.3	19499
 541.9	19520
 542.4	19522
 543.0	19583
 543.5	19535
 544.0	19512
 544.6	19565
 545.1	19569
 545.6	19611
 546.2	19587
 546.7	19497
 547.3	19563
 547.8	19540
 548.3	19596
 548.9	19511
 549.4	19511
 550.0	19485
 550.5	19551
 551.0	19603
 551.6	19543
 552.1	19569
 552.6	19566
 553.2	19543
 553.7	19515
 554.3	19555
 554.8	19630
 555.3	19472
 555.9	19545
 556.4	19494
 556.9	19589
 557.5	19609
 558.0	19556
 558.6	19531
 559.1	19601
 559.6	19576
 560.2	19566
 560.7	19557
 561.3	19521
 561.8	19493
 562.3	19602
 562.9	19581
 563.4	19603
 563.9	19591
 564.5	19590
 565.0	19567
 565.6	19587
 566.1	19581
 566.6	19583
 567.2	19569
 567.7	19674
 568.2	19562
 568.8	19581
 569.3	19544
 569.9	19620
 570.4	19607
 570.9	19569
 571.5	19567
 572.0	19546
 572.5	19606
 573.1	19545
 573.6	19591
 574.1	19581
 574.7	19569
 575.2	19534
 575.8	19565
 576.3	19634
 576.8	19590
 577.4	19592
 577.9	19598
 578.4	19550
 579.0	19545
 579.5	19642
 580.1	19559
 580.6	19554
 581.1	19623
 581.7	19631
 582.2	19552
 582.7	19593
 583.3	19629
 583.8	19591
 584.3	19533
 584.9	19583
 585.4	19581
 586.0	19542
 586.5	19573
 587.0	19522
 587.6	19597
 588.1	19537
 588.6	19611
 589.2	19543
 589.7	19562
 590.2	19549
 590.8	19547
 591.3	19575
 591.9	19517
 592.4	19584
 592.9	19521
 593.5	19522
 594.0	19513
 594.5	19536
 595.1	19528
 595.6	19515
 596.1	19576
 596.7	19548
 597.2	19595
 597.7	19539
 598.3	19551
 598.8	19525
 599.3	19555
 599.9	19531
 600.4	19536
 601.0	19540
 601.5	19534
 602.0	19531
 602.6	19483
 603.1	19501
 603.6	19493
 604.2	19595
 604.7	19495
 605.2	19567
 605.8	19475
 606.3	19494
 606.8	19564
 607.4	19528
 607.9	19559
 608.4	19500
 609.0	19525
 609.5	19559
 610.0	19528
 610.6	19618
 611.1	19516
 611.6	19534
 612.2	19520
 612.7	19577
 613.2	19557
 613.8	19467
 614.3	19487
 614.8	19535
 615.4	19442
 615.9	19516
 616.4	19558
 617.0	19491
 617.5	19576
 618.0	19573
 618.6	19473
 619.1	19487
 619.6	19553
 620.2	19524
 620.7	19561
 621.2	19506
 621.8	19531
 622.3	19540
 622.8	19482
 623.4	19500
 623.9	19553
 624.4	19517
 625.0	19506
 625.5	19508
 626.0	19516
 626.6	19558
 627.1	19553
 627.6	19497
 628.2	19467
 628.7	19501
 629.2	19486
 629.8	19521
 630.3	19541
 630.8	19528
 631.4	19525
 631.9	19557
 632.4	19454
 632.9	19490
 633.5	19499
 634.0	19469
 634.5	19573
 635.1	19507
 635.6	19497
 636.1	19483
 636.7	19563
 637.2	19564
 637.7	19473
 638.3	19589
 638.8	19586
 639.3	19607
 639.8	19571
 640.4	19589
 640.9	19625
 641.4	19530
 642.0	19531
 642.5	19559
 643.0	19531
 643.6	19619
 644.1	19574
 644.6	19581
 645.1	19628
 645.7	19610
 646.2	19570
 646.7	19585
 647.3	19608
 647.8	19606
 648.3	19587
 648.9	19611
 649.4	19522
 649.9	19587
 650.4	19589
 651.0	19621
 651.5	19627
 652.0	19676
 652.6	19604
 653.1	19677
 653.6	19572
 654.1	19653
 654.7	19591
 655.2	19662
 655.7	19693
 656.3	19703
 656.8	19627
 657.3	19672
 657.8	19615
 658.4	19598
 658.9	19591
 659.4	19680
 659.9	19663
 660.5	19633
 661.0	19673
 661.5	19715
 662.1	19665
 662.6	19670
 663.1	19629
 663.6	19711
 664.2	19669
 664.7	19635
 665.2	19555
 665.7	19678
 666.3	19654
 666.8	19656
 667.3	19662
 667.8	19620
 668.4	19660
 668.9	19665
 669.4	19651
 669.9	19692
 670.5	19629
 671.0	19653
 671.5	19606
 672.0	19677
 672.6	19687
 673.1	19713
 673.6	19632
 674.1	19669
 674.7	19667
 675.2	19723
 675.7	19571
 676.2	19599
 676.8	19653
 677.3	19683
 677.8	19608
 678.3	19731
 678.9	19667
 679.4	19623
 679.9	19685
 680.4	19697
 681.0	19663
 681.5	19713
 682.0	19686
 682.5	19714
 683.1	19627
 683.6	19688
 684.1	19630
 684.6	19741
 685.1	19677
 685.7	19705
 686.2	19675
 686.7	19636
 687.2	19625
 687.8	19709
 688.3	19642
 688.8	19677
 689.3	19617
 689.8	19643
 690.4	19650
 690.9	19654
 691.4	19642
 691.9	19687
 692.4	19633
 693.0	19707
 693.5	19676
 694.0	19657
 694.5	19644
 695.1	19629
 695.6	19597
 696.1	19667
 696.6	19648
 697.1	19663
 697.7	19694
 698.2	19630
 698.7	19651
 699.2	19617
 699.7	19622
 700.3	19603
 700.8	19578
 701.3	19709
 701.8	19667
 702.3	19610
 702.8	19619
 703.4	19594
 703.9	19619
 704.4	19622
 704.9	19581
 705.4	19599
 706.0	19708
 706.5	19703
 707.0	19611
 707.5	19605
 708.0	19652
 708.5	19610
 709.1	19683
 709.6	19655
 710.1	19623
 710.6	19612
 711.1	19623
 711.7	19648
 712.2	19663
 712.7	19673
 713.2	19655
 713.7	19664
 714.2	19633
 714.8	19718
 715.3	19665
 715.8	19667
 716.3	19687
 716.8	19589
 717.3	19578
 717.8	19696
 718.4	19709
 718.9	19645
 719.4	19721
 719.9	19635
 720.4	19681
 720.9	19689
 721.4	19679
 722.0	19697
 722.5	19688
 723.0	19667
 723.5	19679
 724.0	19641
 724.5	19631
 725.0	19645
 725.6	19576
 726.1	19626
 726.6	19743
 727.1	19679
 727.6	19720
 728.1	19730
 728.6	19687
 729.1	19673
 729.7	19658
 730.2	19684
 730.7	19723
 731.2	19751
 731.7	19741
 732.2	19747
 732.7	19723
 733.2	19772
 733.8	19743
 734.3	19758
 734.8	19724
 735.3	19746
 735.8	19726
 736.3	19692
 736.8	19723
 737.3	19756
 737.8	19699
 738.4	19695
 738.9	19640
 739.4	19727
 739.9	19712
 740.4	19714
 740.9	19708
 741.4	19699
 741.9	19695
 742.4	19713
 742.9	19693
 743.4	19792
 744.0	19713
 744.5	19704
 745.0	19728
 745.5	19811
 746.0	19787
 746.5	19791
 747.0	19742
 747.5	19738
 748.0	19710
 748.5	19729
 749.0	19751
 749.5	19847
 750.0	19682
 750.5	19758
 751.1	19774
 751.6	19783
 752.1	19782
 752.6	19751
 753.1	19787
 753.6	19729
 754.1	19707
 754.6	19761
 755.1	19723
 755.6	19743
 756.1	19662
 756.6	19781
 757.1	19758
 757.6	19746
 758.1	19727
 758.6	19754
 759.1	19686
 759.6	19738
 760.1	19695
 760.7	19669
 761.2	19761
 761.7	19706
 762.2	19702
 762.7	19770
 763.2	19621
 763.7	19728
 764.2	19670
 764.7	19682
 765.2	19731
 765.7	19714
 766.2	19679
 766.7	19742
 767.2	19710
 767.7	19723
 768.2	19717
 768.7	19691
 769.2	19695
 769.7	19753
 770.2	19731
 770.7	19734
 771.2	19727
 771.7	19703
 772.2	19726
 772.7	19782
 773.2	19770
 773.7	19721
 774.2	19676
 774.7	19740
 775.2	19735
 775.7	19715
 776.2	19714
 776.7	19746
 777.2	19673
 777.7	19761
 778.2	19746
 778.7	19792
 779.2	19805
 779.7	19835
 780.2	19683
 780.7	19759
 781.2	19766
 781.7	19844
 782.2	19763
 782.6	19848
 783.1	19861
 783.6	19820
 784.1	19786
 784.6	19779
 785.1	19800
 785.6	19786
 786.1	19826
 786.6	19848
 787.1	19795
 787.6	19796
 788.1	19799
 788.6	19794
 789.1	19785
 789.6	19840
 790.1	19858
 790.6	19858
 791.1	19763
 791.6	19776
 792.0	19804
 792.5	19848
 793.0	19839
 793.5	19843
 794.0	19785
 794.5	19885
 795.0	19878
 795.5	19857
 796.0	19871
 796.5	19831
 797.0	19867
 797.5	19921
 798.0	19780
 798.4	19837
 798.9	19830
 799.4	19860
 799.9	19880
 800.4	19752
 800.9	19862
 801.4	19951
 801.9	19917
 802.4	19858
 802.9	19938
 803.3	19941
 803.8	19923
 804.3	19877
 804.8	19951
 805.3	19919
 805.8	19923
 806.3	19933
 806.8	19924
 807.2	19932
 807.7	19911
 808.2	19955
 808.7	19885
 809.2	19900
 809.7	19853
 810.2	19925
 810.7	19873
 811.1	19903
 811.6	19916
 812.1	19875
 812.6	19851
 813.1	19908
 813.6	19935
 814.1	19926
 814.5	19887
 815.0	19922
 815.5	19896
 816.0	19853
 816.5	19936
 817.0	19891
 817.4	19881
 817.9	19927
 818.4	19865
 818.9	19963
 819.4	19917
 819.9	19903
 820.3	19875
 820.8	19891
 821.3	19898
 821.8	19929
 822.3	19864
 822.7	19859
 823.2	19924
 823.7	19881
 824.2	19893
 824.7	19876
 825.2	19902
 825.6	19887
 826.1	19883
 826.6	19935
 827.1	19928
 827.6	19930
 828.0	19871
 828.5	19850
 829.0	19894
 829.5	19841
 829.9	19848
 830.4	19915
 830.9	19902
 831.4	19932
 831.9	19889
 832.3	19979
 832.8	19920
 833.3	19915
 833.8	20007
 834.2	20004
 834.7	19841
 835.2	19953
 835.7	19957
 836.1	19952
 836.6	19940
 837.1	19947
 837.6	19954
 838.0	19995
 838.5	20025
 839.0	20029
 839.5	20024
 839.9	19945
 840.4	19951
 840.9	19921
 841.4	19972
 841.8	19995
 842.3	20011
 842.8	20037
 843.3	20041
 843.7	19936
 844.2	19928
 844.7	20028
 845.1	19994
 845.6	19919
 846.1	19947
 846.6	19981
 847.0	19881
 847.5	19935
 848.0	19924
 848.4	19973
 848.9	19937
 849.4	19931
 849.8	19957
 850.3	19955
 850.8	20009
 851.3	19974
 851.7	19977
 852.2	19989
 852.7	19974
 853.1	19961
 853.6	19917
 854.1	19965
 854.5	19937
 855.0	19924
 855.5	19921
 855.9	19993
 856.4	19988
 856.9	19902
 857.3	19963
 857.8	19951
 858.3	19999
 858.7	19956
 859.2	19981
 859.7	19974
 860.1	20031
 860.6	20016
 861.1	19953
 861.5	20012
 862.0	20025
 862.4	20003
 862.9	19967
 863.4	20016
 863.8	20018
 864.3	20023
 864.8	19946
 865.2	19999
 865.7	20032
 866.1	20049
 866.6	19972
 867.1	20056
 867.5	20045
 868.0	20023
 868.5	19982
 868.9	19992
 869.4	20103
 869.8	20056
 870.3	20017
 870.8	20087
 871.2	20039
 871.7	20034
 872.1	19989
 872.6	20043
 873.0	20022
 873.5	20117
 874.0	20118
 874.4	20020
 874.9	20078
 875.3	20063
 875.8	19993
 876.2	19807
 876.7	19671
 877.2	19345
 877.6	18921
 878.1	18517
