#xlabel Wavelength (nm)
#ylabel Spectrometer Array Counts
#title Exposure time is 11000 ms
## lambda	counts
 349.8	18158
 350.3	18415
 350.8	18662
 351.3	18863
 351.9	18979
 352.4	19109
 352.9	19194
 353.4	19171
 354.0	19180
 354.5	19232
 355.0	19237
 355.5	19256
 356.0	19211
 356.6	19169
 357.1	19223
 357.6	19193
 358.1	19213
 358.7	19147
 359.2	19161
 359.7	19174
 360.2	19208
 360.8	19167
 361.3	19265
 361.8	19202
 362.3	19232
 362.9	19179
 363.4	19257
 363.9	19254
 364.4	19282
 364.9	19179
 365.5	19259
 366.0	19241
 366.5	19181
 367.0	19231
 367.6	19253
 368.1	19243
 368.6	19174
 369.1	19236
 369.7	19279
 370.2	19195
 370.7	19191
 371.2	19235
 371.8	19283
 372.3	19195
 372.8	19276
 373.3	19287
 373.9	19218
 374.4	19235
 374.9	19287
 375.5	19161
 376.0	19284
 376.5	19247
 377.0	19263
 377.6	19195
 378.1	19279
 378.6	19205
 379.1	19202
 379.7	19177
 380.2	19247
 380.7	19239
 381.2	19193
 381.8	19179
 382.3	19215
 382.8	19189
 383.4	19237
 383.9	19181
 384.4	19325
 384.9	19230
 385.5	19244
 386.0	19245
 386.5	19314
 387.1	19239
 387.6	19259
 388.1	19249
 388.6	19263
 389.2	19244
 389.7	19261
 390.2	19225
 390.8	19315
 391.3	19269
 391.8	19263
 392.3	19237
 392.9	19222
 393.4	19201
 393.9	19267
 394.5	19264
 395.0	19200
 395.5	19215
 396.0	19209
 396.6	19171
 397.1	19262
 397.6	19244
 398.2	19246
 398.7	19242
 399.2	19332
 399.8	19195
 400.3	19263
 400.8	19306
 401.3	19263
 401.9	19281
 402.4	19292
 402.9	19275
 403.5	19295
 404.0	19278
 404.5	19219
 405.1	19215
 405.6	19306
 406.1	19272
 406.7	19262
 407.2	19262
 407.7	19338
 408.2	19323
 408.8	19307
 409.3	19330
 409.8	19363
 410.4	19315
 410.9	19316
 411.4	19252
 412.0	19307
 412.5	19351
 413.0	19293
 413.6	19332
 414.1	19283
 414.6	19305
 415.2	19344
 415.7	19271
 416.2	19313
 416.8	19293
 417.3	19267
 417.8	19276
 418.4	19357
 418.9	19288
 419.4	19419
 420.0	19287
 420.5	19353
 421.0	19285
 421.5	19363
 422.1	19333
 422.6	19381
 423.1	19403
 423.7	19363
 424.2	19344
 424.7	19375
 425.3	19343
 425.8	19356
 426.3	19334
 426.9	19392
 427.4	19326
 427.9	19431
 428.5	19364
 429.0	19391
 429.6	19343
 430.1	19410
 430.6	19392
 431.2	19315
 431.7	19403
 432.2	19359
 432.8	19318
 433.3	19410
 433.8	19400
 434.4	19363
 434.9	19357
 435.4	19396
 436.0	19362
 436.5	19348
 437.0	19413
 437.6	19381
 438.1	19424
 438.6	19423
 439.2	19445
 439.7	19425
 440.2	19367
 440.8	19395
 441.3	19394
 441.8	19400
 442.4	19370
 442.9	19393
 443.5	19425
 444.0	19425
 444.5	19442
 445.1	19345
 445.6	19375
 446.1	19393
 446.7	19405
 447.2	19417
 447.7	19389
 448.3	19452
 448.8	19396
 449.3	19425
 449.9	19348
 450.4	19436
 450.9	19464
 451.5	19442
 452.0	19391
 452.6	19397
 453.1	19439
 453.6	19437
 454.2	19304
 454.7	19369
 455.2	19368
 455.8	19411
 456.3	19339
 456.8	19460
 457.4	19372
 457.9	19378
 458.5	19422
 459.0	19379
 459.5	19415
 460.1	19359
 460.6	19412
 461.1	19393
 461.7	19437
 462.2	19386
 462.7	19428
 463.3	19349
 463.8	19422
 464.4	19493
 464.9	19427
 465.4	19485
 466.0	19378
 466.5	19448
 467.0	19371
 467.6	19430
 468.1	19516
 468.7	19436
 469.2	19355
 469.7	19434
 470.3	19404
 470.8	19431
 471.3	19394
 471.9	19336
 472.4	19385
 473.0	19419
 473.5	19427
 474.0	19413
 474.6	19405
 475.1	19383
 475.6	19447
 476.2	19449
 476.7	19424
 477.3	19475
 477.8	19403
 478.3	19324
 478.9	19524
 479.4	19402
 479.9	19398
 480.5	19380
 481.0	19397
 481.6	19412
 482.1	19458
 482.6	19428
 483.2	19431
 483.7	19539
 484.2	19455
 484.8	19282
 485.3	19379
 485.9	19447
 486.4	19392
 486.9	19405
 487.5	19358
 488.0	19358
 488.6	19404
 489.1	19410
 489.6	19457
 490.2	19448
 490.7	19399
 491.2	19361
 491.8	19416
 492.3	19363
 492.9	19405
 493.4	19417
 493.9	19427
 494.5	19434
 495.0	19500
 495.6	19418
 496.1	19427
 496.6	19495
 497.2	19403
 497.7	19367
 498.2	19461
 498.8	19487
 499.3	19400
 499.9	19451
 500.4	19444
 500.9	19421
 501.5	19409
 502.0	19469
 502.6	19437
 503.1	19513
 503.6	19472
 504.2	19409
 504.7	19399
 505.2	19453
 505.8	19427
 506.3	19491
 506.9	19487
 507.4	19433
 507.9	19395
 508.5	19406
 509.0	19425
 509.6	19485
 510.1	19429
 510.6	19457
 511.2	19464
 511.7	19426
 512.2	19486
 512.8	19491
 513.3	19440
 513.9	19423
 514.4	19471
 514.9	19543
 515.5	19429
 516.0	19510
 516.6	19480
 517.1	19532
 517.6	19514
 518.2	19489
 518.7	19429
 519.3	19489
 519.8	19546
 520.3	19545
 520.9	19507
 521.4	19516
 521.9	19579
 522.5	19509
 523.0	19539
 523.6	19581
 524.1	19423
 524.6	19481
 525.2	19514
 525.7	19545
 526.3	19457
 526.8	19546
 527.3	19486
 527.9	19503
 528.4	19479
 528.9	19529
 529.5	19538
 530.0	19510
 530.6	19548
 531.1	19543
 531.6	19443
 532.2	19549
 532.7	19487
 533.3	19505
 533.8	19622
 534.3	19638
 534.9	19610
 535.4	19540
 536.0	19603
 536.5	19631
 537.0	19577
 537.6	19581
 538.1	19627
 538.6	19633
 539.2	19562
 539.7	19560
 540.3	19654
 540.8	19611
 541.3	19561
 541.9	19586
 542.4	19582
 543.0	19642
 543.5	19600
 544.0	19579
 544.6	19631
 545.1	19633
 545.6	19674
 546.2	19654
 546.7	19561
 547.3	19626
 547.8	19603
 548.3	19654
 548.9	19579
 549.4	19579
 550.0	19545
 550.5	19614
 551.0	19663
 551.6	19607
 552.1	19632
 552.6	19629
 553.2	19604
 553.7	19582
 554.3	19618
 554.8	19689
 555.3	19535
 555.9	19611
 556.4	19565
 556.9	19654
 557.5	19678
 558.0	19622
 558.6	19593
 559.1	19671
 559.6	19641
 560.2	19633
 560.7	19631
 561.3	19594
 561.8	19563
 562.3	19677
 562.9	19648
 563.4	19675
 563.9	19663
 564.5	19663
 565.0	19639
 565.6	19656
 566.1	19653
 566.6	19655
 567.2	19637
 567.7	19744
 568.2	19641
 568.8	19659
 569.3	19624
 569.9	19695
 570.4	19679
 570.9	19652
 571.5	19643
 572.0	19623
 572.5	19683
 573.1	19622
 573.6	19671
 574.1	19657
 574.7	19648
 575.2	19615
 575.8	19644
 576.3	19716
 576.8	19672
 577.4	19672
 577.9	19678
 578.4	19631
 579.0	19636
 579.5	19729
 580.1	19647
 580.6	19643
 581.1	19707
 581.7	19716
 582.2	19647
 582.7	19680
 583.3	19723
 583.8	19684
 584.3	19617
 584.9	19675
 585.4	19669
 586.0	19640
 586.5	19665
 587.0	19611
 587.6	19687
 588.1	19632
 588.6	19710
 589.2	19641
 589.7	19658
 590.2	19646
 590.8	19643
 591.3	19673
 591.9	19611
 592.4	19677
 592.9	19620
 593.5	19619
 594.0	19614
 594.5	19631
 595.1	19626
 595.6	19615
 596.1	19673
 596.7	19640
 597.2	19684
 597.7	19632
 598.3	19645
 598.8	19619
 599.3	19647
 599.9	19627
 600.4	19622
 601.0	19633
 601.5	19629
 602.0	19623
 602.6	19572
 603.1	19588
 603.6	19590
 604.2	19690
 604.7	19592
 605.2	19659
 605.8	19566
 606.3	19587
 606.8	19658
 607.4	19623
 607.9	19655
 608.4	19593
 609.0	19619
 609.5	19663
 610.0	19629
 610.6	19718
 611.1	19614
 611.6	19637
 612.2	19624
 612.7	19678
 613.2	19659
 613.8	19573
 614.3	19593
 614.8	19640
 615.4	19551
 615.9	19624
 616.4	19668
 617.0	19601
 617.5	19687
 618.0	19683
 618.6	19593
 619.1	19606
 619.6	19669
 620.2	19642
 620.7	19684
 621.2	19629
 621.8	19653
 622.3	19664
 622.8	19607
 623.4	19629
 623.9	19679
 624.4	19645
 625.0	19630
 625.5	19633
 626.0	19642
 626.6	19687
 627.1	19682
 627.6	19633
 628.2	19600
 628.7	19634
 629.2	19621
 629.8	19653
 630.3	19669
 630.8	19657
 631.4	19653
 631.9	19689
 632.4	19586
 632.9	19625
 633.5	19628
 634.0	19599
 634.5	19704
 635.1	19636
 635.6	19623
 636.1	19610
 636.7	19691
 637.2	19685
 637.7	19600
 638.3	19712
 638.8	19713
 639.3	19731
 639.8	19698
 640.4	19710
 640.9	19747
 641.4	19655
 642.0	19653
 642.5	19683
 643.0	19651
 643.6	19743
 644.1	19701
 644.6	19710
 645.1	19755
 645.7	19726
 646.2	19690
 646.7	19707
 647.3	19735
 647.8	19728
 648.3	19706
 648.9	19739
 649.4	19647
 649.9	19716
 650.4	19717
 651.0	19749
 651.5	19759
 652.0	19799
 652.6	19735
 653.1	19804
 653.6	19703
 654.1	19785
 654.7	19724
 655.2	19793
 655.7	19827
 656.3	19833
 656.8	19761
 657.3	19809
 657.8	19760
 658.4	19737
 658.9	19730
 659.4	19819
 659.9	19801
 660.5	19770
 661.0	19813
 661.5	19855
 662.1	19809
 662.6	19811
 663.1	19771
 663.6	19853
 664.2	19812
 664.7	19775
 665.2	19699
 665.7	19821
 666.3	19793
 666.8	19802
 667.3	19810
 667.8	19770
 668.4	19804
 668.9	19811
 669.4	19795
 669.9	19835
 670.5	19773
 671.0	19798
 671.5	19752
 672.0	19817
 672.6	19828
 673.1	19858
 673.6	19772
 674.1	19817
 674.7	19803
 675.2	19861
 675.7	19717
 676.2	19741
 676.8	19798
 677.3	19826
 677.8	19751
 678.3	19873
 678.9	19811
 679.4	19759
 679.9	19825
 680.4	19843
 681.0	19808
 681.5	19851
 682.0	19827
 682.5	19851
 683.1	19765
 683.6	19829
 684.1	19770
 684.6	19881
 685.1	19814
 685.7	19849
 686.2	19815
 686.7	19781
 687.2	19771
 687.8	19853
 688.3	19787
 688.8	19822
 689.3	19758
 689.8	19791
 690.4	19789
 690.9	19795
 691.4	19784
 691.9	19823
 692.4	19774
 693.0	19848
 693.5	19820
 694.0	19800
 694.5	19794
 695.1	19771
 695.6	19738
 696.1	19812
 696.6	19793
 697.1	19811
 697.7	19843
 698.2	19779
 698.7	19799
 699.2	19758
 699.7	19770
 700.3	19751
 700.8	19730
 701.3	19855
 701.8	19815
 702.3	19756
 702.8	19772
 703.4	19735
 703.9	19759
 704.4	19766
 704.9	19726
 705.4	19745
 706.0	19856
 706.5	19849
 707.0	19761
 707.5	19753
 708.0	19793
 708.5	19751
 709.1	19825
 709.6	19793
 710.1	19767
 710.6	19751
 711.1	19759
 711.7	19796
 712.2	19805
 712.7	19809
 713.2	19797
 713.7	19802
 714.2	19764
 714.8	19850
 715.3	19803
 715.8	19801
 716.3	19826
 716.8	19729
 717.3	19715
 717.8	19832
 718.4	19844
 718.9	19785
 719.4	19855
 719.9	19774
 720.4	19815
 720.9	19823
 721.4	19821
 722.0	19835
 722.5	19823
 723.0	19806
 723.5	19813
 724.0	19772
 724.5	19776
 725.0	19785
 725.6	19711
 726.1	19758
 726.6	19884
 727.1	19821
 727.6	19860
 728.1	19867
 728.6	19827
 729.1	19819
 729.7	19801
 730.2	19831
 730.7	19866
 731.2	19893
 731.7	19877
 732.2	19881
 732.7	19864
 733.2	19914
 733.8	19885
 734.3	19904
 734.8	19868
 735.3	19887
 735.8	19864
 736.3	19833
 736.8	19866
 737.3	19898
 737.8	19848
 738.4	19845
 738.9	19787
 739.4	19874
 739.9	19860
 740.4	19860
 740.9	19856
 741.4	19849
 741.9	19842
 742.4	19865
 742.9	19849
 743.4	19942
 744.0	19857
 744.5	19858
 745.0	19879
 745.5	19964
 746.0	19943
 746.5	19943
 747.0	19897
 747.5	19887
 748.0	19860
 748.5	19878
 749.0	19908
 749.5	19999
 750.0	19835
 750.5	19911
 751.1	19929
 751.6	19930
 752.1	19930
 752.6	19901
 753.1	19940
 753.6	19879
 754.1	19855
 754.6	19916
 755.1	19876
 755.6	19895
 756.1	19819
 756.6	19935
 757.1	19903
 757.6	19891
 758.1	19871
 758.6	19901
 759.1	19833
 759.6	19882
 760.1	19840
 760.7	19818
 761.2	19903
 761.7	19851
 762.2	19849
 762.7	19913
 763.2	19765
 763.7	19863
 764.2	19817
 764.7	19825
 765.2	19870
 765.7	19849
 766.2	19818
 766.7	19880
 767.2	19842
 767.7	19863
 768.2	19852
 768.7	19828
 769.2	19833
 769.7	19891
 770.2	19859
 770.7	19864
 771.2	19859
 771.7	19836
 772.2	19858
 772.7	19909
 773.2	19898
 773.7	19853
 774.2	19812
 774.7	19868
 775.2	19869
 775.7	19844
 776.2	19843
 776.7	19873
 777.2	19802
 777.7	19889
 778.2	19875
 778.7	19915
 779.2	19928
 779.7	19966
 780.2	19807
 780.7	19880
 781.2	19894
 781.7	19973
 782.2	19892
 782.6	19975
 783.1	19986
 783.6	19947
 784.1	19919
 784.6	19907
 785.1	19921
 785.6	19917
 786.1	19957
 786.6	19974
 787.1	19916
 787.6	19926
 788.1	19924
 788.6	19915
 789.1	19913
 789.6	19959
 790.1	19983
 790.6	19979
 791.1	19889
 791.6	19901
 792.0	19931
 792.5	19974
 793.0	19965
 793.5	19965
 794.0	19905
 794.5	20007
 795.0	20001
 795.5	19973
 796.0	19995
 796.5	19949
 797.0	19986
 797.5	20039
 798.0	19895
 798.4	19950
 798.9	19943
 799.4	19981
 799.9	19990
 800.4	19861
 800.9	19974
 801.4	20054
 801.9	20026
 802.4	19965
 802.9	20042
 803.3	20049
 803.8	20027
 804.3	19979
 804.8	20056
 805.3	20018
 805.8	20021
 806.3	20034
 806.8	20025
 807.2	20030
 807.7	20009
 808.2	20052
 808.7	19979
 809.2	19999
 809.7	19943
 810.2	20022
 810.7	19969
 811.1	19996
 811.6	20009
 812.1	19972
 812.6	19939
 813.1	19997
 813.6	20023
 814.1	20007
 814.5	19974
 815.0	20002
 815.5	19981
 816.0	19938
 816.5	20015
 817.0	19970
 817.4	19961
 817.9	20003
 818.4	19945
 818.9	20045
 819.4	19999
 819.9	19983
 820.3	19956
 820.8	19964
 821.3	19976
 821.8	20006
 822.3	19945
 822.7	19931
 823.2	20002
 823.7	19954
 824.2	19963
 824.7	19949
 825.2	19977
 825.6	19959
 826.1	19953
 826.6	20011
 827.1	20000
 827.6	20000
 828.0	19943
 828.5	19919
 829.0	19961
 829.5	19906
 829.9	19921
 830.4	19987
 830.9	19969
 831.4	20004
 831.9	19961
 832.3	20046
 832.8	19994
 833.3	19989
 833.8	20078
 834.2	20068
 834.7	19906
 835.2	20017
 835.7	20024
 836.1	20017
 836.6	20002
 837.1	20013
 837.6	20025
 838.0	20063
 838.5	20091
 839.0	20093
 839.5	20087
 839.9	20005
 840.4	20018
 840.9	19990
 841.4	20034
 841.8	20058
 842.3	20066
 842.8	20100
 843.3	20102
 843.7	19999
 844.2	19988
 844.7	20089
 845.1	20059
 845.6	19981
 846.1	20005
 846.6	20040
 847.0	19939
 847.5	19999
 848.0	19987
 848.4	20033
 848.9	19999
 849.4	19987
 849.8	20023
 850.3	20015
 850.8	20069
 851.3	20034
 851.7	20029
 852.2	20042
 852.7	20033
 853.1	20012
 853.6	19971
 854.1	20017
 854.5	19987
 855.0	19979
 855.5	19977
 855.9	20042
 856.4	20037
 856.9	19952
 857.3	20014
 857.8	20003
 858.3	20047
 858.7	20006
 859.2	20023
 859.7	20019
 860.1	20076
 860.6	20058
 861.1	20004
 861.5	20057
 862.0	20065
 862.4	20038
 862.9	20007
 863.4	20053
 863.8	20058
 864.3	20063
 864.8	19989
 865.2	20037
 865.7	20070
 866.1	20089
 866.6	20006
 867.1	20089
 867.5	20077
 868.0	20057
 868.5	20013
 868.9	20023
 869.4	20136
 869.8	20092
 870.3	20051
 870.8	20130
 871.2	20085
 871.7	20086
 872.1	20040
 872.6	20100
 873.0	20081
 873.5	20171
 874.0	20160
 874.4	20048
 874.9	20081
 875.3	20035
 875.8	19937
 876.2	19729
 876.7	19580
 877.2	19266
 877.6	18879
 878.1	18519
