#xlabel Wavelength (nm)
#ylabel Spectrometer Array Counts
#title Exposure time is 11000 ms
## lambda	counts
 349.8	18183
 350.3	18454
 350.8	18709
 351.3	18914
 351.9	19027
 352.4	19149
 352.9	19224
 353.4	19192
 354.0	19194
 354.5	19238
 355.0	19240
 355.5	19249
 356.0	19206
 356.6	19166
 357.1	19223
 357.6	19194
 358.1	19224
 358.7	19155
 359.2	19170
 359.7	19181
 360.2	19220
 360.8	19188
 361.3	19275
 361.8	19217
 362.3	19244
 362.9	19195
 363.4	19266
 363.9	19264
 364.4	19295
 364.9	19194
 365.5	19269
 366.0	19248
 366.5	19196
 367.0	19239
 367.6	19264
 368.1	19258
 368.6	19187
 369.1	19245
 369.7	19291
 370.2	19209
 370.7	19203
 371.2	19241
 371.8	19299
 372.3	19210
 372.8	19289
 373.3	19300
 373.9	19229
 374.4	19242
 374.9	19290
 375.5	19173
 376.0	19300
 376.5	19257
 377.0	19270
 377.6	19208
 378.1	19285
 378.6	19214
 379.1	19213
 379.7	19185
 380.2	19254
 380.7	19253
 381.2	19200
 381.8	19188
 382.3	19226
 382.8	19200
 383.4	19246
 383.9	19187
 384.4	19340
 384.9	19241
 385.5	19254
 386.0	19258
 386.5	19321
 387.1	19246
 387.6	19267
 388.1	19262
 388.6	19271
 389.2	19257
 389.7	19269
 390.2	19240
 390.8	19325
 391.3	19277
 391.8	19271
 392.3	19247
 392.9	19235
 393.4	19217
 393.9	19279
 394.5	19271
 395.0	19211
 395.5	19223
 396.0	19221
 396.6	19179
 397.1	19269
 397.6	19255
 398.2	19255
 398.7	19253
 399.2	19343
 399.8	19207
 400.3	19274
 400.8	19313
 401.3	19277
 401.9	19292
 402.4	19305
 402.9	19287
 403.5	19305
 404.0	19289
 404.5	19234
 405.1	19225
 405.6	19320
 406.1	19278
 406.7	19273
 407.2	19276
 407.7	19347
 408.2	19329
 408.8	19321
 409.3	19345
 409.8	19379
 410.4	19329
 410.9	19322
 411.4	19258
 412.0	19317
 412.5	19365
 413.0	19301
 413.6	19341
 414.1	19289
 414.6	19317
 415.2	19350
 415.7	19281
 416.2	19326
 416.8	19300
 417.3	19279
 417.8	19285
 418.4	19371
 418.9	19301
 419.4	19431
 420.0	19301
 420.5	19364
 421.0	19293
 421.5	19378
 422.1	19347
 422.6	19393
 423.1	19414
 423.7	19372
 424.2	19350
 424.7	19383
 425.3	19353
 425.8	19368
 426.3	19345
 426.9	19403
 427.4	19337
 427.9	19435
 428.5	19371
 429.0	19402
 429.6	19347
 430.1	19417
 430.6	19403
 431.2	19326
 431.7	19414
 432.2	19367
 432.8	19327
 433.3	19420
 433.8	19409
 434.4	19370
 434.9	19373
 435.4	19407
 436.0	19377
 436.5	19357
 437.0	19419
 437.6	19389
 438.1	19433
 438.6	19431
 439.2	19457
 439.7	19441
 440.2	19381
 440.8	19409
 441.3	19410
 441.8	19408
 442.4	19373
 442.9	19401
 443.5	19437
 444.0	19425
 444.5	19457
 445.1	19357
 445.6	19385
 446.1	19408
 446.7	19419
 447.2	19424
 447.7	19405
 448.3	19461
 448.8	19408
 449.3	19435
 449.9	19360
 450.4	19450
 450.9	19471
 451.5	19451
 452.0	19407
 452.6	19413
 453.1	19445
 453.6	19445
 454.2	19320
 454.7	19379
 455.2	19387
 455.8	19422
 456.3	19351
 456.8	19473
 457.4	19383
 457.9	19393
 458.5	19431
 459.0	19387
 459.5	19423
 460.1	19370
 460.6	19418
 461.1	19403
 461.7	19448
 462.2	19398
 462.7	19439
 463.3	19359
 463.8	19438
 464.4	19505
 464.9	19438
 465.4	19499
 466.0	19389
 466.5	19452
 467.0	19381
 467.6	19443
 468.1	19525
 468.7	19447
 469.2	19359
 469.7	19440
 470.3	19412
 470.8	19447
 471.3	19404
 471.9	19354
 472.4	19397
 473.0	19431
 473.5	19440
 474.0	19420
 474.6	19417
 475.1	19392
 475.6	19460
 476.2	19461
 476.7	19430
 477.3	19485
 477.8	19410
 478.3	19331
 478.9	19533
 479.4	19409
 479.9	19409
 480.5	19388
 481.0	19406
 481.6	19419
 482.1	19470
 482.6	19440
 483.2	19439
 483.7	19547
 484.2	19463
 484.8	19289
 485.3	19387
 485.9	19454
 486.4	19405
 486.9	19415
 487.5	19366
 488.0	19364
 488.6	19415
 489.1	19418
 489.6	19467
 490.2	19457
 490.7	19409
 491.2	19369
 491.8	19419
 492.3	19367
 492.9	19417
 493.4	19425
 493.9	19436
 494.5	19442
 495.0	19514
 495.6	19426
 496.1	19438
 496.6	19502
 497.2	19415
 497.7	19379
 498.2	19474
 498.8	19501
 499.3	19407
 499.9	19463
 500.4	19451
 500.9	19434
 501.5	19416
 502.0	19481
 502.6	19444
 503.1	19522
 503.6	19479
 504.2	19414
 504.7	19407
 505.2	19463
 505.8	19439
 506.3	19506
 506.9	19494
 507.4	19435
 507.9	19406
 508.5	19413
 509.0	19437
 509.6	19490
 510.1	19439
 510.6	19466
 511.2	19467
 511.7	19435
 512.2	19493
 512.8	19497
 513.3	19451
 513.9	19430
 514.4	19479
 514.9	19546
 515.5	19438
 516.0	19513
 516.6	19489
 517.1	19541
 517.6	19521
 518.2	19501
 518.7	19436
 519.3	19501
 519.8	19559
 520.3	19555
 520.9	19514
 521.4	19523
 521.9	19587
 522.5	19515
 523.0	19548
 523.6	19590
 524.1	19437
 524.6	19491
 525.2	19523
 525.7	19548
 526.3	19466
 526.8	19552
 527.3	19492
 527.9	19513
 528.4	19489
 528.9	19541
 529.5	19544
 530.0	19519
 530.6	19559
 531.1	19553
 531.6	19449
 532.2	19557
 532.7	19499
 533.3	19517
 533.8	19632
 534.3	19646
 534.9	19625
 535.4	19551
 536.0	19608
 536.5	19640
 537.0	19580
 537.6	19592
 538.1	19631
 538.6	19637
 539.2	19566
 539.7	19570
 540.3	19663
 540.8	19618
 541.3	19563
 541.9	19591
 542.4	19594
 543.0	19655
 543.5	19607
 544.0	19591
 544.6	19637
 545.1	19641
 545.6	19681
 546.2	19658
 546.7	19567
 547.3	19636
 547.8	19611
 548.3	19666
 548.9	19586
 549.4	19588
 550.0	19555
 550.5	19622
 551.0	19675
 551.6	19617
 552.1	19639
 552.6	19640
 553.2	19618
 553.7	19587
 554.3	19632
 554.8	19701
 555.3	19547
 555.9	19621
 556.4	19571
 556.9	19663
 557.5	19686
 558.0	19631
 558.6	19606
 559.1	19675
 559.6	19650
 560.2	19641
 560.7	19638
 561.3	19594
 561.8	19566
 562.3	19683
 562.9	19655
 563.4	19680
 563.9	19672
 564.5	19669
 565.0	19648
 565.6	19663
 566.1	19660
 566.6	19661
 567.2	19647
 567.7	19755
 568.2	19650
 568.8	19662
 569.3	19627
 569.9	19701
 570.4	19690
 570.9	19651
 571.5	19650
 572.0	19637
 572.5	19687
 573.1	19629
 573.6	19679
 574.1	19661
 574.7	19657
 575.2	19623
 575.8	19651
 576.3	19725
 576.8	19675
 577.4	19682
 577.9	19693
 578.4	19643
 579.0	19642
 579.5	19736
 580.1	19651
 580.6	19645
 581.1	19716
 581.7	19726
 582.2	19649
 582.7	19689
 583.3	19726
 583.8	19692
 584.3	19631
 584.9	19679
 585.4	19677
 586.0	19639
 586.5	19674
 587.0	19620
 587.6	19701
 588.1	19638
 588.6	19716
 589.2	19647
 589.7	19666
 590.2	19651
 590.8	19649
 591.3	19677
 591.9	19621
 592.4	19685
 592.9	19623
 593.5	19622
 594.0	19618
 594.5	19639
 595.1	19637
 595.6	19615
 596.1	19681
 596.7	19651
 597.2	19697
 597.7	19642
 598.3	19655
 598.8	19629
 599.3	19653
 599.9	19640
 600.4	19635
 601.0	19648
 601.5	19634
 602.0	19632
 602.6	19585
 603.1	19601
 603.6	19595
 604.2	19700
 604.7	19601
 605.2	19668
 605.8	19580
 606.3	19597
 606.8	19666
 607.4	19639
 607.9	19661
 608.4	19600
 609.0	19628
 609.5	19667
 610.0	19631
 610.6	19731
 611.1	19623
 611.6	19644
 612.2	19634
 612.7	19685
 613.2	19667
 613.8	19582
 614.3	19597
 614.8	19647
 615.4	19554
 615.9	19632
 616.4	19675
 617.0	19608
 617.5	19690
 618.0	19692
 618.6	19598
 619.1	19610
 619.6	19676
 620.2	19648
 620.7	19691
 621.2	19631
 621.8	19660
 622.3	19668
 622.8	19611
 623.4	19632
 623.9	19690
 624.4	19645
 625.0	19641
 625.5	19641
 626.0	19654
 626.6	19693
 627.1	19686
 627.6	19641
 628.2	19601
 628.7	19635
 629.2	19627
 629.8	19660
 630.3	19683
 630.8	19667
 631.4	19659
 631.9	19693
 632.4	19593
 632.9	19627
 633.5	19638
 634.0	19601
 634.5	19709
 635.1	19642
 635.6	19623
 636.1	19617
 636.7	19697
 637.2	19694
 637.7	19609
 638.3	19715
 638.8	19717
 639.3	19735
 639.8	19699
 640.4	19724
 640.9	19756
 641.4	19661
 642.0	19658
 642.5	19685
 643.0	19655
 643.6	19751
 644.1	19707
 644.6	19713
 645.1	19756
 645.7	19735
 646.2	19697
 646.7	19711
 647.3	19738
 647.8	19736
 648.3	19719
 648.9	19741
 649.4	19653
 649.9	19722
 650.4	19726
 651.0	19757
 651.5	19767
 652.0	19811
 652.6	19741
 653.1	19813
 653.6	19710
 654.1	19789
 654.7	19731
 655.2	19801
 655.7	19831
 656.3	19841
 656.8	19765
 657.3	19818
 657.8	19764
 658.4	19742
 658.9	19739
 659.4	19829
 659.9	19804
 660.5	19780
 661.0	19823
 661.5	19860
 662.1	19810
 662.6	19823
 663.1	19777
 663.6	19862
 664.2	19817
 664.7	19783
 665.2	19702
 665.7	19830
 666.3	19798
 666.8	19805
 667.3	19813
 667.8	19772
 668.4	19813
 668.9	19818
 669.4	19807
 669.9	19845
 670.5	19779
 671.0	19804
 671.5	19759
 672.0	19830
 672.6	19837
 673.1	19862
 673.6	19779
 674.1	19821
 674.7	19817
 675.2	19871
 675.7	19728
 676.2	19748
 676.8	19801
 677.3	19833
 677.8	19757
 678.3	19878
 678.9	19817
 679.4	19765
 679.9	19833
 680.4	19846
 681.0	19812
 681.5	19858
 682.0	19833
 682.5	19856
 683.1	19776
 683.6	19836
 684.1	19780
 684.6	19889
 685.1	19822
 685.7	19857
 686.2	19822
 686.7	19791
 687.2	19777
 687.8	19857
 688.3	19793
 688.8	19827
 689.3	19769
 689.8	19798
 690.4	19799
 690.9	19807
 691.4	19797
 691.9	19835
 692.4	19783
 693.0	19858
 693.5	19824
 694.0	19813
 694.5	19805
 695.1	19780
 695.6	19746
 696.1	19817
 696.6	19803
 697.1	19817
 697.7	19844
 698.2	19782
 698.7	19804
 699.2	19765
 699.7	19773
 700.3	19761
 700.8	19735
 701.3	19858
 701.8	19819
 702.3	19762
 702.8	19775
 703.4	19743
 703.9	19770
 704.4	19774
 704.9	19737
 705.4	19751
 706.0	19863
 706.5	19854
 707.0	19766
 707.5	19759
 708.0	19799
 708.5	19755
 709.1	19833
 709.6	19802
 710.1	19771
 710.6	19759
 711.1	19767
 711.7	19796
 712.2	19813
 712.7	19817
 713.2	19804
 713.7	19807
 714.2	19769
 714.8	19859
 715.3	19810
 715.8	19817
 716.3	19829
 716.8	19741
 717.3	19723
 717.8	19840
 718.4	19851
 718.9	19790
 719.4	19865
 719.9	19775
 720.4	19825
 720.9	19834
 721.4	19827
 722.0	19843
 722.5	19831
 723.0	19817
 723.5	19819
 724.0	19786
 724.5	19779
 725.0	19789
 725.6	19723
 726.1	19774
 726.6	19892
 727.1	19821
 727.6	19870
 728.1	19881
 728.6	19833
 729.1	19824
 729.7	19807
 730.2	19834
 730.7	19872
 731.2	19899
 731.7	19886
 732.2	19893
 732.7	19870
 733.2	19919
 733.8	19892
 734.3	19907
 734.8	19875
 735.3	19893
 735.8	19878
 736.3	19843
 736.8	19875
 737.3	19905
 737.8	19852
 738.4	19847
 738.9	19790
 739.4	19885
 739.9	19869
 740.4	19862
 740.9	19861
 741.4	19857
 741.9	19855
 742.4	19869
 742.9	19858
 743.4	19947
 744.0	19866
 744.5	19867
 745.0	19888
 745.5	19975
 746.0	19949
 746.5	19958
 747.0	19906
 747.5	19896
 748.0	19869
 748.5	19892
 749.0	19912
 749.5	20006
 750.0	19846
 750.5	19919
 751.1	19931
 751.6	19940
 752.1	19943
 752.6	19911
 753.1	19946
 753.6	19883
 754.1	19860
 754.6	19925
 755.1	19886
 755.6	19899
 756.1	19823
 756.6	19946
 757.1	19911
 757.6	19901
 758.1	19877
 758.6	19912
 759.1	19844
 759.6	19896
 760.1	19844
 760.7	19823
 761.2	19905
 761.7	19859
 762.2	19855
 762.7	19920
 763.2	19774
 763.7	19875
 764.2	19821
 764.7	19830
 765.2	19878
 765.7	19859
 766.2	19827
 766.7	19885
 767.2	19849
 767.7	19868
 768.2	19855
 768.7	19828
 769.2	19841
 769.7	19899
 770.2	19871
 770.7	19875
 771.2	19865
 771.7	19838
 772.2	19868
 772.7	19914
 773.2	19905
 773.7	19862
 774.2	19815
 774.7	19877
 775.2	19870
 775.7	19853
 776.2	19845
 776.7	19879
 777.2	19811
 777.7	19894
 778.2	19881
 778.7	19922
 779.2	19944
 779.7	19973
 780.2	19813
 780.7	19892
 781.2	19901
 781.7	19985
 782.2	19896
 782.6	19982
 783.1	19995
 783.6	19947
 784.1	19928
 784.6	19915
 785.1	19931
 785.6	19922
 786.1	19959
 786.6	19980
 787.1	19926
 787.6	19933
 788.1	19930
 788.6	19925
 789.1	19922
 789.6	19970
 790.1	19987
 790.6	19988
 791.1	19899
 791.6	19909
 792.0	19933
 792.5	19984
 793.0	19971
 793.5	19974
 794.0	19914
 794.5	20011
 795.0	20007
 795.5	19983
 796.0	20006
 796.5	19955
 797.0	19994
 797.5	20042
 798.0	19902
 798.4	19961
 798.9	19949
 799.4	19986
 799.9	19999
 800.4	19875
 800.9	19981
 801.4	20065
 801.9	20034
 802.4	19975
 802.9	20049
 803.3	20057
 803.8	20036
 804.3	19989
 804.8	20063
 805.3	20027
 805.8	20028
 806.3	20037
 806.8	20035
 807.2	20036
 807.7	20018
 808.2	20058
 808.7	19982
 809.2	20009
 809.7	19950
 810.2	20026
 810.7	19975
 811.1	19999
 811.6	20011
 812.1	19974
 812.6	19947
 813.1	20009
 813.6	20036
 814.1	20017
 814.5	19983
 815.0	20011
 815.5	19986
 816.0	19945
 816.5	20030
 817.0	19980
 817.4	19972
 817.9	20011
 818.4	19950
 818.9	20052
 819.4	20005
 819.9	19989
 820.3	19961
 820.8	19976
 821.3	19983
 821.8	20015
 822.3	19957
 822.7	19941
 823.2	20014
 823.7	19963
 824.2	19971
 824.7	19956
 825.2	19986
 825.6	19965
 826.1	19967
 826.6	20021
 827.1	20011
 827.6	20011
 828.0	19952
 828.5	19932
 829.0	19973
 829.5	19922
 829.9	19929
 830.4	19991
 830.9	19978
 831.4	20012
 831.9	19965
 832.3	20051
 832.8	19996
 833.3	19999
 833.8	20084
 834.2	20077
 834.7	19922
 835.2	20030
 835.7	20031
 836.1	20026
 836.6	20011
 837.1	20020
 837.6	20034
 838.0	20069
 838.5	20105
 839.0	20103
 839.5	20097
 839.9	20014
 840.4	20031
 840.9	19998
 841.4	20041
 841.8	20071
 842.3	20080
 842.8	20106
 843.3	20115
 843.7	20009
 844.2	20003
 844.7	20100
 845.1	20064
 845.6	19987
 846.1	20017
 846.6	20053
 847.0	19944
 847.5	20005
 848.0	19999
 848.4	20041
 848.9	20007
 849.4	19996
 849.8	20026
 850.3	20022
 850.8	20077
 851.3	20040
 851.7	20042
 852.2	20050
 852.7	20036
 853.1	20019
 853.6	19985
 854.1	20028
 854.5	19993
 855.0	19988
 855.5	19985
 855.9	20055
 856.4	20048
 856.9	19960
 857.3	20025
 857.8	20011
 858.3	20057
 858.7	20014
 859.2	20028
 859.7	20031
 860.1	20086
 860.6	20067
 861.1	20010
 861.5	20065
 862.0	20073
 862.4	20052
 862.9	20018
 863.4	20062
 863.8	20069
 864.3	20073
 864.8	19999
 865.2	20047
 865.7	20078
 866.1	20095
 866.6	20013
 867.1	20103
 867.5	20091
 868.0	20071
 868.5	20031
 868.9	20036
 869.4	20145
 869.8	20103
 870.3	20058
 870.8	20141
 871.2	20087
 871.7	20084
 872.1	20038
 872.6	20097
 873.0	20079
 873.5	20165
 874.0	20162
 874.4	20062
 874.9	20106
 875.3	20075
 875.8	19982
 876.2	19785
 876.7	19639
 877.2	19320
 877.6	18913
 878.1	18539
