#xlabel Wavelength (nm)
#ylabel Spectrometer Array Counts
#title Exposure time is 11000 ms
## lambda	counts
 349.8	18298
 350.3	18602
 350.8	18862
 351.3	19045
 351.9	19135
 352.4	19227
 352.9	19274
 353.4	19214
 354.0	19200
 354.5	19239
 355.0	19241
 355.5	19255
 356.0	19215
 356.6	19181
 357.1	19233
 357.6	19210
 358.1	19237
 358.7	19173
 359.2	19187
 359.7	19201
 360.2	19240
 360.8	19204
 361.3	19295
 361.8	19231
 362.3	19259
 362.9	19211
 363.4	19288
 363.9	19286
 364.4	19315
 364.9	19212
 365.5	19288
 366.0	19267
 366.5	19217
 367.0	19261
 367.6	19284
 368.1	19280
 368.6	19208
 369.1	19265
 369.7	19306
 370.2	19227
 370.7	19226
 371.2	19261
 371.8	19317
 372.3	19227
 372.8	19307
 373.3	19313
 373.9	19251
 374.4	19265
 374.9	19311
 375.5	19190
 376.0	19317
 376.5	19273
 377.0	19294
 377.6	19227
 378.1	19308
 378.6	19231
 379.1	19228
 379.7	19203
 380.2	19276
 380.7	19270
 381.2	19220
 381.8	19209
 382.3	19247
 382.8	19219
 383.4	19266
 383.9	19207
 384.4	19361
 384.9	19263
 385.5	19279
 386.0	19273
 386.5	19340
 387.1	19263
 387.6	19287
 388.1	19280
 388.6	19295
 389.2	19275
 389.7	19286
 390.2	19257
 390.8	19343
 391.3	19299
 391.8	19293
 392.3	19266
 392.9	19254
 393.4	19234
 393.9	19299
 394.5	19290
 395.0	19231
 395.5	19243
 396.0	19235
 396.6	19193
 397.1	19284
 397.6	19273
 398.2	19272
 398.7	19272
 399.2	19362
 399.8	19225
 400.3	19292
 400.8	19337
 401.3	19295
 401.9	19309
 402.4	19325
 402.9	19311
 403.5	19327
 404.0	19310
 404.5	19246
 405.1	19241
 405.6	19336
 406.1	19298
 406.7	19294
 407.2	19291
 407.7	19364
 408.2	19351
 408.8	19336
 409.3	19362
 409.8	19394
 410.4	19346
 410.9	19345
 411.4	19277
 412.0	19335
 412.5	19380
 413.0	19318
 413.6	19358
 414.1	19307
 414.6	19338
 415.2	19369
 415.7	19299
 416.2	19341
 416.8	19321
 417.3	19297
 417.8	19306
 418.4	19392
 418.9	19320
 419.4	19445
 420.0	19322
 420.5	19380
 421.0	19314
 421.5	19391
 422.1	19367
 422.6	19413
 423.1	19433
 423.7	19389
 424.2	19373
 424.7	19402
 425.3	19371
 425.8	19388
 426.3	19362
 426.9	19422
 427.4	19353
 427.9	19462
 428.5	19387
 429.0	19423
 429.6	19373
 430.1	19441
 430.6	19421
 431.2	19343
 431.7	19433
 432.2	19387
 432.8	19347
 433.3	19443
 433.8	19433
 434.4	19388
 434.9	19391
 435.4	19426
 436.0	19391
 436.5	19383
 437.0	19444
 437.6	19409
 438.1	19453
 438.6	19450
 439.2	19477
 439.7	19457
 440.2	19401
 440.8	19430
 441.3	19430
 441.8	19433
 442.4	19393
 442.9	19423
 443.5	19458
 444.0	19447
 444.5	19471
 445.1	19379
 445.6	19407
 446.1	19428
 446.7	19440
 447.2	19447
 447.7	19421
 448.3	19479
 448.8	19428
 449.3	19454
 449.9	19384
 450.4	19467
 450.9	19490
 451.5	19474
 452.0	19431
 452.6	19429
 453.1	19467
 453.6	19463
 454.2	19337
 454.7	19397
 455.2	19404
 455.8	19442
 456.3	19367
 456.8	19493
 457.4	19400
 457.9	19413
 458.5	19451
 459.0	19407
 459.5	19441
 460.1	19387
 460.6	19437
 461.1	19421
 461.7	19466
 462.2	19415
 462.7	19458
 463.3	19379
 463.8	19450
 464.4	19522
 464.9	19459
 465.4	19519
 466.0	19409
 466.5	19475
 467.0	19397
 467.6	19465
 468.1	19543
 468.7	19463
 469.2	19383
 469.7	19463
 470.3	19429
 470.8	19463
 471.3	19425
 471.9	19370
 472.4	19416
 473.0	19453
 473.5	19454
 474.0	19439
 474.6	19437
 475.1	19411
 475.6	19476
 476.2	19481
 476.7	19449
 477.3	19503
 477.8	19432
 478.3	19351
 478.9	19554
 479.4	19430
 479.9	19433
 480.5	19409
 481.0	19423
 481.6	19440
 482.1	19487
 482.6	19462
 483.2	19458
 483.7	19566
 484.2	19485
 484.8	19308
 485.3	19407
 485.9	19469
 486.4	19425
 486.9	19430
 487.5	19388
 488.0	19380
 488.6	19434
 489.1	19438
 489.6	19487
 490.2	19476
 490.7	19425
 491.2	19383
 491.8	19443
 492.3	19385
 492.9	19437
 493.4	19443
 493.9	19457
 494.5	19463
 495.0	19531
 495.6	19448
 496.1	19457
 496.6	19523
 497.2	19431
 497.7	19402
 498.2	19491
 498.8	19515
 499.3	19430
 499.9	19480
 500.4	19473
 500.9	19458
 501.5	19437
 502.0	19499
 502.6	19469
 503.1	19540
 503.6	19503
 504.2	19438
 504.7	19432
 505.2	19483
 505.8	19457
 506.3	19522
 506.9	19511
 507.4	19455
 507.9	19420
 508.5	19433
 509.0	19453
 509.6	19505
 510.1	19459
 510.6	19484
 511.2	19491
 511.7	19459
 512.2	19512
 512.8	19518
 513.3	19465
 513.9	19452
 514.4	19497
 514.9	19565
 515.5	19461
 516.0	19529
 516.6	19505
 517.1	19556
 517.6	19540
 518.2	19521
 518.7	19455
 519.3	19517
 519.8	19574
 520.3	19573
 520.9	19532
 521.4	19541
 521.9	19607
 522.5	19538
 523.0	19565
 523.6	19606
 524.1	19455
 524.6	19515
 525.2	19543
 525.7	19568
 526.3	19483
 526.8	19576
 527.3	19513
 527.9	19531
 528.4	19504
 528.9	19557
 529.5	19567
 530.0	19539
 530.6	19577
 531.1	19573
 531.6	19469
 532.2	19576
 532.7	19516
 533.3	19536
 533.8	19646
 534.3	19661
 534.9	19649
 535.4	19572
 536.0	19630
 536.5	19659
 537.0	19605
 537.6	19612
 538.1	19650
 538.6	19658
 539.2	19584
 539.7	19587
 540.3	19679
 540.8	19637
 541.3	19588
 541.9	19611
 542.4	19613
 543.0	19670
 543.5	19629
 544.0	19606
 544.6	19658
 545.1	19665
 545.6	19704
 546.2	19681
 546.7	19586
 547.3	19655
 547.8	19636
 548.3	19685
 548.9	19599
 549.4	19603
 550.0	19575
 550.5	19642
 551.0	19693
 551.6	19633
 552.1	19661
 552.6	19663
 553.2	19637
 553.7	19607
 554.3	19647
 554.8	19721
 555.3	19564
 555.9	19639
 556.4	19591
 556.9	19682
 557.5	19705
 558.0	19651
 558.6	19627
 559.1	19695
 559.6	19671
 560.2	19659
 560.7	19655
 561.3	19615
 561.8	19589
 562.3	19701
 562.9	19679
 563.4	19701
 563.9	19686
 564.5	19686
 565.0	19667
 565.6	19682
 566.1	19683
 566.6	19685
 567.2	19665
 567.7	19775
 568.2	19664
 568.8	19685
 569.3	19648
 569.9	19724
 570.4	19710
 570.9	19675
 571.5	19669
 572.0	19647
 572.5	19709
 573.1	19651
 573.6	19698
 574.1	19687
 574.7	19674
 575.2	19641
 575.8	19675
 576.3	19742
 576.8	19695
 577.4	19701
 577.9	19710
 578.4	19660
 579.0	19662
 579.5	19758
 580.1	19671
 580.6	19664
 581.1	19738
 581.7	19739
 582.2	19668
 582.7	19709
 583.3	19751
 583.8	19710
 584.3	19647
 584.9	19700
 585.4	19693
 586.0	19663
 586.5	19691
 587.0	19641
 587.6	19717
 588.1	19659
 588.6	19738
 589.2	19669
 589.7	19686
 590.2	19671
 590.8	19671
 591.3	19695
 591.9	19637
 592.4	19707
 592.9	19649
 593.5	19643
 594.0	19634
 594.5	19659
 595.1	19651
 595.6	19629
 596.1	19701
 596.7	19671
 597.2	19715
 597.7	19663
 598.3	19674
 598.8	19647
 599.3	19675
 599.9	19650
 600.4	19653
 601.0	19665
 601.5	19656
 602.0	19650
 602.6	19599
 603.1	19622
 603.6	19615
 604.2	19718
 604.7	19620
 605.2	19686
 605.8	19596
 606.3	19621
 606.8	19690
 607.4	19653
 607.9	19679
 608.4	19619
 609.0	19648
 609.5	19691
 610.0	19654
 610.6	19746
 611.1	19641
 611.6	19662
 612.2	19655
 612.7	19703
 613.2	19687
 613.8	19603
 614.3	19622
 614.8	19665
 615.4	19575
 615.9	19650
 616.4	19692
 617.0	19629
 617.5	19713
 618.0	19713
 618.6	19612
 619.1	19630
 619.6	19699
 620.2	19667
 620.7	19711
 621.2	19657
 621.8	19677
 622.3	19683
 622.8	19631
 623.4	19652
 623.9	19704
 624.4	19667
 625.0	19658
 625.5	19660
 626.0	19670
 626.6	19710
 627.1	19705
 627.6	19659
 628.2	19621
 628.7	19655
 629.2	19641
 629.8	19676
 630.3	19695
 630.8	19687
 631.4	19673
 631.9	19712
 632.4	19608
 632.9	19644
 633.5	19653
 634.0	19620
 634.5	19727
 635.1	19660
 635.6	19646
 636.1	19637
 636.7	19717
 637.2	19712
 637.7	19629
 638.3	19737
 638.8	19745
 639.3	19754
 639.8	19722
 640.4	19739
 640.9	19774
 641.4	19678
 642.0	19677
 642.5	19703
 643.0	19679
 643.6	19767
 644.1	19725
 644.6	19737
 645.1	19783
 645.7	19755
 646.2	19717
 646.7	19736
 647.3	19758
 647.8	19757
 648.3	19735
 648.9	19762
 649.4	19675
 649.9	19740
 650.4	19743
 651.0	19772
 651.5	19782
 652.0	19829
 652.6	19759
 653.1	19830
 653.6	19734
 654.1	19811
 654.7	19747
 655.2	19819
 655.7	19850
 656.3	19858
 656.8	19789
 657.3	19837
 657.8	19780
 658.4	19758
 658.9	19762
 659.4	19842
 659.9	19825
 660.5	19795
 661.0	19837
 661.5	19882
 662.1	19829
 662.6	19841
 663.1	19800
 663.6	19879
 664.2	19833
 664.7	19802
 665.2	19723
 665.7	19849
 666.3	19819
 666.8	19825
 667.3	19832
 667.8	19793
 668.4	19824
 668.9	19834
 669.4	19821
 669.9	19862
 670.5	19797
 671.0	19822
 671.5	19778
 672.0	19852
 672.6	19855
 673.1	19885
 673.6	19796
 674.1	19837
 674.7	19829
 675.2	19887
 675.7	19743
 676.2	19768
 676.8	19823
 677.3	19851
 677.8	19769
 678.3	19895
 678.9	19833
 679.4	19791
 679.9	19853
 680.4	19865
 681.0	19831
 681.5	19877
 682.0	19849
 682.5	19879
 683.1	19795
 683.6	19853
 684.1	19798
 684.6	19905
 685.1	19839
 685.7	19869
 686.2	19841
 686.7	19811
 687.2	19798
 687.8	19875
 688.3	19807
 688.8	19846
 689.3	19787
 689.8	19817
 690.4	19821
 690.9	19823
 691.4	19811
 691.9	19854
 692.4	19805
 693.0	19872
 693.5	19852
 694.0	19829
 694.5	19823
 695.1	19798
 695.6	19766
 696.1	19837
 696.6	19819
 697.1	19837
 697.7	19869
 698.2	19798
 698.7	19822
 699.2	19786
 699.7	19794
 700.3	19771
 700.8	19753
 701.3	19877
 701.8	19835
 702.3	19783
 702.8	19794
 703.4	19763
 703.9	19786
 704.4	19795
 704.9	19751
 705.4	19766
 706.0	19881
 706.5	19871
 707.0	19786
 707.5	19777
 708.0	19817
 708.5	19775
 709.1	19848
 709.6	19818
 710.1	19795
 710.6	19775
 711.1	19788
 711.7	19818
 712.2	19828
 712.7	19835
 713.2	19824
 713.7	19831
 714.2	19792
 714.8	19877
 715.3	19825
 715.8	19838
 716.3	19845
 716.8	19758
 717.3	19743
 717.8	19860
 718.4	19871
 718.9	19807
 719.4	19883
 719.9	19797
 720.4	19840
 720.9	19853
 721.4	19844
 722.0	19865
 722.5	19844
 723.0	19833
 723.5	19846
 724.0	19804
 724.5	19794
 725.0	19809
 725.6	19737
 726.1	19791
 726.6	19911
 727.1	19844
 727.6	19883
 728.1	19895
 728.6	19855
 729.1	19838
 729.7	19829
 730.2	19858
 730.7	19897
 731.2	19917
 731.7	19907
 732.2	19914
 732.7	19891
 733.2	19943
 733.8	19911
 734.3	19927
 734.8	19892
 735.3	19914
 735.8	19894
 736.3	19860
 736.8	19890
 737.3	19919
 737.8	19869
 738.4	19862
 738.9	19812
 739.4	19899
 739.9	19884
 740.4	19882
 740.9	19881
 741.4	19875
 741.9	19869
 742.4	19890
 742.9	19875
 743.4	19972
 744.0	19886
 744.5	19889
 745.0	19907
 745.5	19993
 746.0	19969
 746.5	19976
 747.0	19925
 747.5	19914
 748.0	19887
 748.5	19911
 749.0	19935
 749.5	20025
 750.0	19865
 750.5	19935
 751.1	19953
 751.6	19957
 752.1	19959
 752.6	19931
 753.1	19965
 753.6	19905
 754.1	19878
 754.6	19935
 755.1	19902
 755.6	19917
 756.1	19841
 756.6	19959
 757.1	19933
 757.6	19923
 758.1	19898
 758.6	19927
 759.1	19862
 759.6	19911
 760.1	19866
 760.7	19845
 761.2	19929
 761.7	19875
 762.2	19874
 762.7	19940
 763.2	19791
 763.7	19893
 764.2	19839
 764.7	19850
 765.2	19898
 765.7	19881
 766.2	19847
 766.7	19907
 767.2	19867
 767.7	19890
 768.2	19881
 768.7	19854
 769.2	19856
 769.7	19919
 770.2	19889
 770.7	19891
 771.2	19885
 771.7	19858
 772.2	19887
 772.7	19936
 773.2	19926
 773.7	19879
 774.2	19834
 774.7	19890
 775.2	19893
 775.7	19868
 776.2	19871
 776.7	19896
 777.2	19827
 777.7	19915
 778.2	19896
 778.7	19938
 779.2	19959
 779.7	19991
 780.2	19833
 780.7	19913
 781.2	19917
 781.7	19999
 782.2	19915
 782.6	20004
 783.1	20015
 783.6	19973
 784.1	19947
 784.6	19933
 785.1	19950
 785.6	19940
 786.1	19980
 786.6	19999
 787.1	19947
 787.6	19953
 788.1	19951
 788.6	19947
 789.1	19937
 789.6	19991
 790.1	20002
 790.6	20008
 791.1	19918
 791.6	19925
 792.0	19955
 792.5	20000
 793.0	19990
 793.5	19995
 794.0	19933
 794.5	20035
 795.0	20027
 795.5	20009
 796.0	20029
 796.5	19981
 797.0	20016
 797.5	20062
 798.0	19924
 798.4	19978
 798.9	19968
 799.4	20001
 799.9	20017
 800.4	19889
 800.9	19999
 801.4	20083
 801.9	20052
 802.4	19987
 802.9	20071
 803.3	20074
 803.8	20052
 804.3	20013
 804.8	20084
 805.3	20048
 805.8	20050
 806.3	20058
 806.8	20046
 807.2	20058
 807.7	20039
 808.2	20081
 808.7	20001
 809.2	20022
 809.7	19972
 810.2	20047
 810.7	19990
 811.1	20019
 811.6	20032
 812.1	19996
 812.6	19964
 813.1	20025
 813.6	20053
 814.1	20033
 814.5	20001
 815.0	20035
 815.5	20006
 816.0	19965
 816.5	20047
 817.0	20001
 817.4	19993
 817.9	20029
 818.4	19975
 818.9	20072
 819.4	20024
 819.9	20014
 820.3	19986
 820.8	19998
 821.3	20005
 821.8	20033
 822.3	19974
 822.7	19962
 823.2	20031
 823.7	19984
 824.2	19992
 824.7	19979
 825.2	20004
 825.6	19983
 826.1	19982
 826.6	20043
 827.1	20027
 827.6	20028
 828.0	19973
 828.5	19947
 829.0	19991
 829.5	19938
 829.9	19947
 830.4	20013
 830.9	19995
 831.4	20030
 831.9	19987
 832.3	20073
 832.8	20023
 833.3	20016
 833.8	20102
 834.2	20094
 834.7	19941
 835.2	20047
 835.7	20050
 836.1	20045
 836.6	20029
 837.1	20036
 837.6	20049
 838.0	20090
 838.5	20124
 839.0	20127
 839.5	20114
 839.9	20033
 840.4	20045
 840.9	20010
 841.4	20063
 841.8	20083
 842.3	20107
 842.8	20129
 843.3	20133
 843.7	20029
 844.2	20019
 844.7	20115
 845.1	20085
 845.6	20010
 846.1	20037
 846.6	20067
 847.0	19965
 847.5	20027
 848.0	20010
 848.4	20061
 848.9	20026
 849.4	20017
 849.8	20046
 850.3	20044
 850.8	20095
 851.3	20063
 851.7	20059
 852.2	20067
 852.7	20065
 853.1	20041
 853.6	20003
 854.1	20051
 854.5	20015
 855.0	20010
 855.5	20008
 855.9	20074
 856.4	20064
 856.9	19982
 857.3	20043
 857.8	20025
 858.3	20073
 858.7	20032
 859.2	20055
 859.7	20043
 860.1	20105
 860.6	20087
 861.1	20030
 861.5	20089
 862.0	20098
 862.4	20071
 862.9	20031
 863.4	20082
 863.8	20089
 864.3	20093
 864.8	20012
 865.2	20070
 865.7	20095
 866.1	20114
 866.6	20029
 867.1	20121
 867.5	20108
 868.0	20087
 868.5	20050
 868.9	20059
 869.4	20165
 869.8	20122
 870.3	20076
 870.8	20149
 871.2	20099
 871.7	20091
 872.1	20042
 872.6	20092
 873.0	20072
 873.5	20159
 874.0	20158
 874.4	20066
 874.9	20130
 875.3	20131
 875.8	20089
 876.2	19937
 876.7	19830
 877.2	19512
 877.6	19073
 878.1	18617
