#xlabel Wavelength (nm)
#ylabel Spectrometer Array Counts
#title Exposure time is 10000 ms
## lambda	counts
 349.8	17190
 350.3	17450
 350.8	17701
 351.3	17887
 351.9	17992
 352.4	18116
 352.9	18189
 353.4	18165
 354.0	18172
 354.5	18212
 355.0	18219
 355.5	18229
 356.0	18184
 356.6	18148
 357.1	18193
 357.6	18165
 358.1	18190
 358.7	18125
 359.2	18138
 359.7	18154
 360.2	18192
 360.8	18156
 361.3	18250
 361.8	18194
 362.3	18220
 362.9	18181
 363.4	18252
 363.9	18249
 364.4	18279
 364.9	18189
 365.5	18261
 366.0	18242
 366.5	18197
 367.0	18241
 367.6	18268
 368.1	18273
 368.6	18203
 369.1	18261
 369.7	18308
 370.2	18229
 370.7	18230
 371.2	18269
 371.8	18320
 372.3	18243
 372.8	18318
 373.3	18329
 373.9	18276
 374.4	18287
 374.9	18338
 375.5	18232
 376.0	18353
 376.5	18313
 377.0	18336
 377.6	18280
 378.1	18362
 378.6	18293
 379.1	18295
 379.7	18269
 380.2	18344
 380.7	18343
 381.2	18303
 381.8	18297
 382.3	18339
 382.8	18315
 383.4	18360
 383.9	18309
 384.4	18458
 384.9	18368
 385.5	18385
 386.0	18388
 386.5	18457
 387.1	18382
 387.6	18403
 388.1	18410
 388.6	18425
 389.2	18409
 389.7	18431
 390.2	18406
 390.8	18492
 391.3	18461
 391.8	18459
 392.3	18449
 392.9	18441
 393.4	18430
 393.9	18497
 394.5	18502
 395.0	18448
 395.5	18471
 396.0	18468
 396.6	18439
 397.1	18527
 397.6	18525
 398.2	18529
 398.7	18527
 399.2	18616
 399.8	18482
 400.3	18553
 400.8	18598
 401.3	18568
 401.9	18583
 402.4	18604
 402.9	18587
 403.5	18617
 404.0	18606
 404.5	18550
 405.1	18560
 405.6	18651
 406.1	18630
 406.7	18636
 407.2	18641
 407.7	18717
 408.2	18715
 408.8	18715
 409.3	18745
 409.8	18791
 410.4	18750
 410.9	18754
 411.4	18708
 412.0	18767
 412.5	18812
 413.0	18763
 413.6	18808
 414.1	18767
 414.6	18803
 415.2	18847
 415.7	18782
 416.2	18833
 416.8	18817
 417.3	18805
 417.8	18820
 418.4	18909
 418.9	18849
 419.4	18979
 420.0	18862
 420.5	18924
 421.0	18868
 421.5	18954
 422.1	18934
 422.6	18985
 423.1	19009
 423.7	18981
 424.2	18963
 424.7	19003
 425.3	18977
 425.8	18999
 426.3	18989
 426.9	19045
 427.4	18989
 427.9	19095
 428.5	19038
 429.0	19077
 429.6	19035
 430.1	19113
 430.6	19108
 431.2	19059
 431.7	19157
 432.2	19127
 432.8	19099
 433.3	19211
 433.8	19220
 434.4	19194
 434.9	19210
 435.4	19258
 436.0	19248
 436.5	19243
 437.0	19315
 437.6	19291
 438.1	19345
 438.6	19346
 439.2	19375
 439.7	19361
 440.2	19309
 440.8	19342
 441.3	19343
 441.8	19350
 442.4	19317
 442.9	19343
 443.5	19374
 444.0	19367
 444.5	19396
 445.1	19315
 445.6	19353
 446.1	19369
 446.7	19387
 447.2	19410
 447.7	19399
 448.3	19468
 448.8	19439
 449.3	19479
 449.9	19429
 450.4	19526
 450.9	19578
 451.5	19579
 452.0	19551
 452.6	19583
 453.1	19637
 453.6	19663
 454.2	19560
 454.7	19639
 455.2	19663
 455.8	19714
 456.3	19658
 456.8	19793
 457.4	19719
 457.9	19737
 458.5	19781
 459.0	19739
 459.5	19776
 460.1	19735
 460.6	19782
 461.1	19763
 461.7	19811
 462.2	19762
 462.7	19806
 463.3	19737
 463.8	19808
 464.4	19875
 464.9	19816
 465.4	19889
 466.0	19790
 466.5	19868
 467.0	19802
 467.6	19874
 468.1	19957
 468.7	19897
 469.2	19835
 469.7	19933
 470.3	19913
 470.8	19963
 471.3	19943
 471.9	19908
 472.4	19965
 473.0	20015
 473.5	20035
 474.0	20035
 474.6	20044
 475.1	20042
 475.6	20113
 476.2	20133
 476.7	20115
 477.3	20177
 477.8	20123
 478.3	20053
 478.9	20259
 479.4	20149
 479.9	20173
 480.5	20159
 481.0	20188
 481.6	20214
 482.1	20277
 482.6	20272
 483.2	20284
 483.7	20401
 484.2	20342
 484.8	20189
 485.3	20291
 485.9	20375
 486.4	20342
 486.9	20371
 487.5	20335
 488.0	20347
 488.6	20409
 489.1	20425
 489.6	20481
 490.2	20478
 490.7	20447
 491.2	20418
 491.8	20474
 492.3	20437
 492.9	20479
 493.4	20497
 493.9	20509
 494.5	20510
 495.0	20579
 495.6	20496
 496.1	20505
 496.6	20567
 497.2	20481
 497.7	20448
 498.2	20529
 498.8	20553
 499.3	20469
 499.9	20525
 500.4	20521
 500.9	20509
 501.5	20503
 502.0	20575
 502.6	20558
 503.1	20651
 503.6	20625
 504.2	20592
 504.7	20607
 505.2	20675
 505.8	20679
 506.3	20779
 506.9	20794
 507.4	20773
 507.9	20771
 508.5	20812
 509.0	20867
 509.6	20953
 510.1	20929
 510.6	20981
 511.2	21025
 511.7	21015
 512.2	21098
 512.8	21129
 513.3	21101
 513.9	21099
 514.4	21166
 514.9	21245
 515.5	21151
 516.0	21228
 516.6	21195
 517.1	21244
 517.6	21225
 518.2	21199
 518.7	21133
 519.3	21180
 519.8	21215
 520.3	21200
 520.9	21151
 521.4	21148
 521.9	21201
 522.5	21111
 523.0	21127
 523.6	21161
 524.1	21014
 524.6	21060
 525.2	21087
 525.7	21119
 526.3	21047
 526.8	21137
 527.3	21093
 527.9	21121
 528.4	21107
 528.9	21177
 529.5	21191
 530.0	21186
 530.6	21251
 531.1	21265
 531.6	21198
 532.2	21327
 532.7	21299
 533.3	21353
 533.8	21488
 534.3	21536
 534.9	21546
 535.4	21513
 536.0	21599
 536.5	21655
 537.0	21636
 537.6	21678
 538.1	21743
 538.6	21773
 539.2	21730
 539.7	21759
 540.3	21863
 540.8	21836
 541.3	21804
 541.9	21843
 542.4	21850
 543.0	21919
 543.5	21880
 544.0	21863
 544.6	21905
 545.1	21920
 545.6	21955
 546.2	21933
 546.7	21845
 547.3	21909
 547.8	21879
 548.3	21927
 548.9	21840
 549.4	21840
 550.0	21806
 550.5	21867
 551.0	21909
 551.6	21855
 552.1	21872
 552.6	21871
 553.2	21842
 553.7	21816
 554.3	21857
 554.8	21926
 555.3	21791
 555.9	21859
 556.4	21826
 556.9	21925
 557.5	21953
 558.0	21914
 558.6	21896
 559.1	21974
 559.6	21963
 560.2	21971
 560.7	21980
 561.3	21961
 561.8	21945
 562.3	22066
 562.9	22048
 563.4	22092
 563.9	22085
 564.5	22099
 565.0	22091
 565.6	22123
 566.1	22123
 566.6	22129
 567.2	22116
 567.7	22219
 568.2	22139
 568.8	22143
 569.3	22121
 569.9	22194
 570.4	22181
 570.9	22157
 571.5	22152
 572.0	22146
 572.5	22208
 573.1	22150
 573.6	22212
 574.1	22206
 574.7	22208
 575.2	22187
 575.8	22230
 576.3	22308
 576.8	22278
 577.4	22294
 577.9	22319
 578.4	22285
 579.0	22303
 579.5	22410
 580.1	22339
 580.6	22361
 581.1	22449
 581.7	22473
 582.2	22423
 582.7	22471
 583.3	22523
 583.8	22504
 584.3	22462
 584.9	22523
 585.4	22531
 586.0	22520
 586.5	22553
 587.0	22523
 587.6	22605
 588.1	22558
 588.6	22635
 589.2	22579
 589.7	22603
 590.2	22594
 590.8	22587
 591.3	22615
 591.9	22557
 592.4	22613
 592.9	22542
 593.5	22535
 594.0	22518
 594.5	22531
 595.1	22503
 595.6	22476
 596.1	22521
 596.7	22476
 597.2	22511
 597.7	22443
 598.3	22450
 598.8	22412
 599.3	22415
 599.9	22381
 600.4	22372
 601.0	22372
 601.5	22353
 602.0	22347
 602.6	22298
 603.1	22309
 603.6	22308
 604.2	22407
 604.7	22315
 605.2	22379
 605.8	22304
 606.3	22333
 606.8	22408
 607.4	22387
 607.9	22431
 608.4	22379
 609.0	22421
 609.5	22471
 610.0	22457
 610.6	22551
 611.1	22483
 611.6	22516
 612.2	22525
 612.7	22594
 613.2	22590
 613.8	22535
 614.3	22577
 614.8	22636
 615.4	22586
 615.9	22677
 616.4	22746
 617.0	22707
 617.5	22815
 618.0	22836
 618.6	22787
 619.1	22834
 619.6	22925
 620.2	22943
 620.7	23012
 621.2	22994
 621.8	23053
 622.3	23091
 622.8	23065
 623.4	23109
 623.9	23182
 624.4	23165
 625.0	23170
 625.5	23179
 626.0	23191
 626.6	23240
 627.1	23233
 627.6	23186
 628.2	23148
 628.7	23181
 629.2	23163
 629.8	23187
 630.3	23191
 630.8	23167
 631.4	23147
 631.9	23155
 632.4	23043
 632.9	23047
 633.5	23034
 634.0	22985
 634.5	23050
 635.1	22967
 635.6	22941
 636.1	22911
 636.7	22943
 637.2	22933
 637.7	22827
 638.3	22912
 638.8	22892
 639.3	22900
 639.8	22837
 640.4	22852
 640.9	22859
 641.4	22767
 642.0	22751
 642.5	22765
 643.0	22727
 643.6	22819
 644.1	22769
 644.6	22775
 645.1	22811
 645.7	22795
 646.2	22753
 646.7	22771
 647.3	22799
 647.8	22813
 648.3	22791
 648.9	22826
 649.4	22752
 649.9	22821
 650.4	22828
 651.0	22879
 651.5	22900
 652.0	22957
 652.6	22903
 653.1	22990
 653.6	22909
 654.1	22991
 654.7	22954
 655.2	23044
 655.7	23085
 656.3	23099
 656.8	23059
 657.3	23121
 657.8	23076
 658.4	23079
 658.9	23095
 659.4	23171
 659.9	23171
 660.5	23154
 661.0	23206
 661.5	23254
 662.1	23218
 662.6	23223
 663.1	23194
 663.6	23274
 664.2	23233
 664.7	23203
 665.2	23135
 665.7	23255
 666.3	23219
 666.8	23223
 667.3	23227
 667.8	23187
 668.4	23211
 668.9	23214
 669.4	23195
 669.9	23223
 670.5	23156
 671.0	23172
 671.5	23123
 672.0	23180
 672.6	23177
 673.1	23203
 673.6	23111
 674.1	23142
 674.7	23126
 675.2	23173
 675.7	23043
 676.2	23041
 676.8	23091
 677.3	23103
 677.8	23027
 678.3	23135
 678.9	23064
 679.4	23006
 679.9	23059
 680.4	23065
 681.0	23030
 681.5	23063
 682.0	23026
 682.5	23051
 683.1	22966
 683.6	23015
 684.1	22949
 684.6	23046
 685.1	22988
 685.7	23002
 686.2	22977
 686.7	22937
 687.2	22933
 687.8	22994
 688.3	22936
 688.8	22966
 689.3	22905
 689.8	22933
 690.4	22927
 690.9	22937
 691.4	22939
 691.9	22961
 692.4	22925
 693.0	22990
 693.5	22964
 694.0	22953
 694.5	22939
 695.1	22926
 695.6	22889
 696.1	22956
 696.6	22938
 697.1	22962
 697.7	22988
 698.2	22926
 698.7	22943
 699.2	22907
 699.7	22912
 700.3	22889
 700.8	22869
 701.3	22966
 701.8	22926
 702.3	22869
 702.8	22875
 703.4	22849
 703.9	22859
 704.4	22846
 704.9	22805
 705.4	22813
 706.0	22895
 706.5	22879
 707.0	22792
 707.5	22775
 708.0	22807
 708.5	22751
 709.1	22812
 709.6	22775
 710.1	22735
 710.6	22717
 711.1	22714
 711.7	22729
 712.2	22727
 712.7	22730
 713.2	22706
 713.7	22700
 714.2	22663
 714.8	22737
 715.3	22684
 715.8	22690
 716.3	22695
 716.8	22613
 717.3	22597
 717.8	22705
 718.4	22716
 718.9	22655
 719.4	22731
 719.9	22642
 720.4	22689
 720.9	22697
 721.4	22695
 722.0	22717
 722.5	22703
 723.0	22688
 723.5	22696
 724.0	22668
 724.5	22659
 725.0	22684
 725.6	22623
 726.1	22675
 726.6	22787
 727.1	22733
 727.6	22761
 728.1	22789
 728.6	22743
 729.1	22735
 729.7	22719
 730.2	22747
 730.7	22775
 731.2	22802
 731.7	22798
 732.2	22805
 732.7	22786
 733.2	22825
 733.8	22804
 734.3	22819
 734.8	22791
 735.3	22822
 735.8	22803
 736.3	22785
 736.8	22819
 737.3	22856
 737.8	22812
 738.4	22811
 738.9	22771
 739.4	22853
 739.9	22835
 740.4	22847
 740.9	22835
 741.4	22832
 741.9	22828
 742.4	22847
 742.9	22826
 743.4	22911
 744.0	22822
 744.5	22817
 745.0	22828
 745.5	22898
 746.0	22871
 746.5	22866
 747.0	22817
 747.5	22799
 748.0	22769
 748.5	22785
 749.0	22795
 749.5	22879
 750.0	22709
 750.5	22767
 751.1	22764
 751.6	22761
 752.1	22747
 752.6	22708
 753.1	22733
 753.6	22666
 754.1	22627
 754.6	22666
 755.1	22619
 755.6	22623
 756.1	22534
 756.6	22629
 757.1	22589
 757.6	22564
 758.1	22529
 758.6	22530
 759.1	22454
 759.6	22485
 760.1	22428
 760.7	22385
 761.2	22456
 761.7	22395
 762.2	22379
 762.7	22419
 763.2	22274
 763.7	22347
 764.2	22286
 764.7	22273
 765.2	22295
 765.7	22260
 766.2	22209
 766.7	22246
 767.2	22185
 767.7	22187
 768.2	22159
 768.7	22113
 769.2	22103
 769.7	22141
 770.2	22105
 770.7	22099
 771.2	22075
 771.7	22043
 772.2	22049
 772.7	22085
 773.2	22060
 773.7	22008
 774.2	21957
 774.7	22002
 775.2	21983
 775.7	21956
 776.2	21948
 776.7	21973
 777.2	21892
 777.7	21963
 778.2	21942
 778.7	21973
 779.2	21979
 779.7	22004
 780.2	21849
 780.7	21913
 781.2	21918
 781.7	21982
 782.2	21901
 782.6	21974
 783.1	21978
 783.6	21935
 784.1	21906
 784.6	21890
 785.1	21896
 785.6	21885
 786.1	21914
 786.6	21932
 787.1	21872
 787.6	21869
 788.1	21866
 788.6	21847
 789.1	21843
 789.6	21873
 790.1	21883
 790.6	21878
 791.1	21783
 791.6	21784
 792.0	21795
 792.5	21823
 793.0	21806
 793.5	21793
 794.0	21726
 794.5	21809
 795.0	21785
 795.5	21751
 796.0	21755
 796.5	21703
 797.0	21715
 797.5	21745
 798.0	21603
 798.4	21637
 798.9	21613
 799.4	21614
 799.9	21615
 800.4	21481
 800.9	21564
 801.4	21619
 801.9	21567
 802.4	21492
 802.9	21545
 803.3	21530
 803.8	21490
 804.3	21428
 804.8	21477
 805.3	21421
 805.8	21399
 806.3	21385
 806.8	21361
 807.2	21347
 807.7	21301
 808.2	21322
 808.7	21240
 809.2	21237
 809.7	21163
 810.2	21211
 810.7	21150
 811.1	21156
 811.6	21143
 812.1	21093
 812.6	21047
 813.1	21084
 813.6	21093
 814.1	21065
 814.5	21018
 815.0	21029
 815.5	20984
 816.0	20938
 816.5	20989
 817.0	20937
 817.4	20913
 817.9	20943
 818.4	20867
 818.9	20939
 819.4	20889
 819.9	20863
 820.3	20825
 820.8	20819
 821.3	20822
 821.8	20837
 822.3	20768
 822.7	20745
 823.2	20799
 823.7	20749
 824.2	20742
 824.7	20717
 825.2	20730
 825.6	20707
 826.1	20692
 826.6	20741
 827.1	20720
 827.6	20710
 828.0	20650
 828.5	20621
 829.0	20654
 829.5	20597
 829.9	20597
 830.4	20651
 830.9	20628
 831.4	20651
 831.9	20603
 832.3	20678
 832.8	20625
 833.3	20619
 833.8	20689
 834.2	20680
 834.7	20522
 835.2	20614
 835.7	20616
 836.1	20603
 836.6	20583
 837.1	20587
 837.6	20593
 838.0	20623
 838.5	20648
 839.0	20642
 839.5	20629
 839.9	20547
 840.4	20556
 840.9	20521
 841.4	20555
 841.8	20575
 842.3	20586
 842.8	20603
 843.3	20603
 843.7	20492
 844.2	20482
 844.7	20565
 845.1	20541
 845.6	20455
 846.1	20477
 846.6	20504
 847.0	20407
 847.5	20449
 848.0	20429
 848.4	20466
 848.9	20433
 849.4	20412
 849.8	20427
 850.3	20421
 850.8	20465
 851.3	20425
 851.7	20416
 852.2	20419
 852.7	20405
 853.1	20380
 853.6	20331
 854.1	20369
 854.5	20326
 855.0	20309
 855.5	20301
 855.9	20363
 856.4	20343
 856.9	20255
 857.3	20303
 857.8	20274
 858.3	20313
 858.7	20262
 859.2	20277
 859.7	20269
 860.1	20317
 860.6	20288
 861.1	20226
 861.5	20269
 862.0	20277
 862.4	20245
 862.9	20202
 863.4	20241
 863.8	20236
 864.3	20235
 864.8	20151
 865.2	20193
 865.7	20214
 866.1	20219
 866.6	20132
 867.1	20208
 867.5	20185
 868.0	20161
 868.5	20107
 868.9	20106
 869.4	20202
 869.8	20150
 870.3	20107
 870.8	20177
 871.2	20127
 871.7	20121
 872.1	20075
 872.6	20125
 873.0	20108
 873.5	20187
 874.0	20179
 874.4	20075
 874.9	20107
 875.3	20063
 875.8	19961
 876.2	19757
 876.7	19606
 877.2	19273
 877.6	18861
 878.1	18467
