#xlabel Wavelength (nm)
#ylabel Spectrometer Array Counts
#title Exposure time is 10000 ms
## lambda	counts
 349.8	17287
 350.3	17524
 350.8	17758
 351.3	17937
 351.9	18041
 352.4	18160
 352.9	18239
 353.4	18218
 354.0	18229
 354.5	18279
 355.0	18290
 355.5	18313
 356.0	18279
 356.6	18251
 357.1	18302
 357.6	18278
 358.1	18311
 358.7	18254
 359.2	18270
 359.7	18289
 360.2	18330
 360.8	18300
 361.3	18393
 361.8	18344
 362.3	18370
 362.9	18334
 363.4	18411
 363.9	18414
 364.4	18444
 364.9	18356
 365.5	18431
 366.0	18417
 366.5	18378
 367.0	18426
 367.6	18458
 368.1	18456
 368.6	18393
 369.1	18456
 369.7	18511
 370.2	18437
 370.7	18444
 371.2	18488
 371.8	18543
 372.3	18472
 372.8	18551
 373.3	18568
 373.9	18511
 374.4	18540
 374.9	18589
 375.5	18493
 376.0	18618
 376.5	18582
 377.0	18615
 377.6	18564
 378.1	18651
 378.6	18594
 379.1	18606
 379.7	18589
 380.2	18676
 380.7	18683
 381.2	18652
 381.8	18645
 382.3	18690
 382.8	18678
 383.4	18727
 383.9	18683
 384.4	18837
 384.9	18752
 385.5	18773
 386.0	18781
 386.5	18855
 387.1	18785
 387.6	18819
 388.1	18827
 388.6	18852
 389.2	18846
 389.7	18875
 390.2	18861
 390.8	18955
 391.3	18938
 391.8	18950
 392.3	18951
 392.9	18958
 393.4	18965
 393.9	19041
 394.5	19059
 395.0	19026
 395.5	19053
 396.0	19063
 396.6	19046
 397.1	19149
 397.6	19146
 398.2	19153
 398.7	19159
 399.2	19255
 399.8	19135
 400.3	19208
 400.8	19256
 401.3	19234
 401.9	19259
 402.4	19289
 402.9	19278
 403.5	19313
 404.0	19315
 404.5	19272
 405.1	19297
 405.6	19403
 406.1	19395
 406.7	19413
 407.2	19434
 407.7	19530
 408.2	19539
 408.8	19554
 409.3	19604
 409.8	19665
 410.4	19639
 410.9	19658
 411.4	19623
 412.0	19693
 412.5	19757
 413.0	19722
 413.6	19783
 414.1	19750
 414.6	19804
 415.2	19853
 415.7	19805
 416.2	19870
 416.8	19865
 417.3	19862
 417.8	19897
 418.4	19997
 418.9	19944
 419.4	20089
 420.0	19987
 420.5	20065
 421.0	20021
 421.5	20119
 422.1	20107
 422.6	20167
 423.1	20206
 423.7	20189
 424.2	20178
 424.7	20232
 425.3	20217
 425.8	20247
 426.3	20241
 426.9	20317
 427.4	20268
 427.9	20387
 428.5	20343
 429.0	20396
 429.6	20375
 430.1	20477
 430.6	20503
 431.2	20471
 431.7	20595
 432.2	20590
 432.8	20592
 433.3	20730
 433.8	20766
 434.4	20767
 434.9	20811
 435.4	20884
 436.0	20887
 436.5	20912
 437.0	21001
 437.6	20996
 438.1	21061
 438.6	21079
 439.2	21116
 439.7	21109
 440.2	21066
 440.8	21105
 441.3	21109
 441.8	21118
 442.4	21089
 442.9	21118
 443.5	21155
 444.0	21159
 444.5	21186
 445.1	21107
 445.6	21159
 446.1	21194
 446.7	21229
 447.2	21263
 447.7	21275
 448.3	21375
 448.8	21369
 449.3	21433
 449.9	21422
 450.4	21560
 450.9	21639
 451.5	21679
 452.0	21697
 452.6	21757
 453.1	21859
 453.6	21909
 454.2	21845
 454.7	21959
 455.2	22012
 455.8	22093
 456.3	22069
 456.8	22211
 457.4	22167
 457.9	22199
 458.5	22253
 459.0	22225
 459.5	22275
 460.1	22235
 460.6	22286
 461.1	22279
 461.7	22327
 462.2	22283
 462.7	22324
 463.3	22259
 463.8	22336
 464.4	22411
 464.9	22366
 465.4	22445
 466.0	22371
 466.5	22457
 467.0	22409
 467.6	22500
 468.1	22607
 468.7	22580
 469.2	22542
 469.7	22663
 470.3	22673
 470.8	22743
 471.3	22755
 471.9	22755
 472.4	22840
 473.0	22907
 473.5	22958
 474.0	22981
 474.6	23019
 475.1	23041
 475.6	23140
 476.2	23179
 476.7	23178
 477.3	23261
 477.8	23230
 478.3	23183
 478.9	23405
 479.4	23326
 479.9	23367
 480.5	23384
 481.0	23443
 481.6	23490
 482.1	23583
 482.6	23592
 483.2	23647
 483.7	23775
 484.2	23755
 484.8	23631
 485.3	23755
 485.9	23857
 486.4	23854
 486.9	23906
 487.5	23890
 488.0	23934
 488.6	24010
 489.1	24053
 489.6	24123
 490.2	24146
 490.7	24129
 491.2	24107
 491.8	24183
 492.3	24149
 492.9	24203
 493.4	24223
 493.9	24246
 494.5	24251
 495.0	24307
 495.6	24234
 496.1	24246
 496.6	24293
 497.2	24214
 497.7	24189
 498.2	24261
 498.8	24274
 499.3	24205
 499.9	24262
 500.4	24271
 500.9	24265
 501.5	24285
 502.0	24380
 502.6	24389
 503.1	24507
 503.6	24519
 504.2	24517
 504.7	24571
 505.2	24684
 505.8	24723
 506.3	24871
 506.9	24943
 507.4	24981
 507.9	25030
 508.5	25125
 509.0	25232
 509.6	25371
 510.1	25407
 510.6	25506
 511.2	25589
 511.7	25641
 512.2	25758
 512.8	25834
 513.3	25846
 513.9	25879
 514.4	25967
 514.9	26077
 515.5	25999
 516.0	26082
 516.6	26045
 517.1	26088
 517.6	26061
 518.2	26031
 518.7	25947
 519.3	25985
 519.8	25985
 520.3	25950
 520.9	25885
 521.4	25864
 521.9	25892
 522.5	25787
 523.0	25772
 523.6	25793
 524.1	25645
 524.6	25683
 525.2	25703
 525.7	25740
 526.3	25687
 526.8	25785
 527.3	25761
 527.9	25803
 528.4	25816
 528.9	25907
 529.5	25957
 530.0	25991
 530.6	26085
 531.1	26144
 531.6	26123
 532.2	26288
 532.7	26323
 533.3	26429
 533.8	26609
 534.3	26719
 534.9	26788
 535.4	26816
 536.0	26947
 536.5	27051
 537.0	27093
 537.6	27174
 538.1	27285
 538.6	27362
 539.2	27365
 539.7	27434
 540.3	27569
 540.8	27583
 541.3	27577
 541.9	27637
 542.4	27665
 543.0	27748
 543.5	27723
 544.0	27708
 544.6	27745
 545.1	27769
 545.6	27795
 546.2	27785
 546.7	27689
 547.3	27750
 547.8	27721
 548.3	27761
 548.9	27667
 549.4	27654
 550.0	27618
 550.5	27678
 551.0	27709
 551.6	27653
 552.1	27659
 552.6	27665
 553.2	27621
 553.7	27599
 554.3	27641
 554.8	27711
 555.3	27581
 555.9	27657
 556.4	27644
 556.9	27763
 557.5	27807
 558.0	27785
 558.6	27789
 559.1	27869
 559.6	27886
 560.2	27927
 560.7	27960
 561.3	27962
 561.8	27967
 562.3	28117
 562.9	28122
 563.4	28189
 563.9	28200
 564.5	28235
 565.0	28245
 565.6	28284
 566.1	28302
 566.6	28319
 567.2	28319
 567.7	28425
 568.2	28369
 568.8	28381
 569.3	28375
 569.9	28439
 570.4	28429
 570.9	28425
 571.5	28426
 572.0	28443
 572.5	28503
 573.1	28463
 573.6	28542
 574.1	28546
 574.7	28563
 575.2	28565
 575.8	28638
 576.3	28734
 576.8	28725
 577.4	28767
 577.9	28815
 578.4	28825
 579.0	28864
 579.5	29007
 580.1	28962
 580.6	29025
 581.1	29133
 581.7	29196
 582.2	29186
 582.7	29249
 583.3	29322
 583.8	29335
 584.3	29320
 584.9	29405
 585.4	29431
 586.0	29446
 586.5	29506
 587.0	29511
 587.6	29597
 588.1	29580
 588.6	29654
 589.2	29619
 589.7	29653
 590.2	29650
 590.8	29639
 591.3	29668
 591.9	29609
 592.4	29643
 592.9	29571
 593.5	29542
 594.0	29519
 594.5	29504
 595.1	29458
 595.6	29397
 596.1	29421
 596.7	29365
 597.2	29374
 597.7	29287
 598.3	29275
 598.8	29225
 599.3	29202
 599.9	29135
 600.4	29103
 601.0	29088
 601.5	29065
 602.0	29037
 602.6	28996
 603.1	29003
 603.6	29011
 604.2	29101
 604.7	29022
 605.2	29101
 605.8	29034
 606.3	29073
 606.8	29159
 607.4	29175
 607.9	29231
 608.4	29213
 609.0	29283
 609.5	29350
 610.0	29358
 610.6	29477
 611.1	29437
 611.6	29521
 612.2	29561
 612.7	29655
 613.2	29697
 613.8	29675
 614.3	29767
 614.8	29851
 615.4	29850
 615.9	30004
 616.4	30115
 617.0	30125
 617.5	30257
 618.0	30346
 618.6	30365
 619.1	30466
 619.6	30603
 620.2	30698
 620.7	30834
 621.2	30886
 621.8	30981
 622.3	31075
 622.8	31112
 623.4	31196
 623.9	31303
 624.4	31320
 625.0	31353
 625.5	31369
 626.0	31405
 626.6	31459
 627.1	31445
 627.6	31402
 628.2	31374
 628.7	31415
 629.2	31389
 629.8	31390
 630.3	31372
 630.8	31339
 631.4	31273
 631.9	31249
 632.4	31110
 632.9	31075
 633.5	31032
 634.0	30945
 634.5	30949
 635.1	30855
 635.6	30798
 636.1	30729
 636.7	30702
 637.2	30655
 637.7	30516
 638.3	30571
 638.8	30515
 639.3	30501
 639.8	30399
 640.4	30398
 640.9	30389
 641.4	30287
 642.0	30237
 642.5	30233
 643.0	30198
 643.6	30266
 644.1	30212
 644.6	30227
 645.1	30235
 645.7	30247
 646.2	30195
 646.7	30230
 647.3	30252
 647.8	30283
 648.3	30263
 648.9	30319
 649.4	30256
 649.9	30339
 650.4	30378
 651.0	30452
 651.5	30493
 652.0	30565
 652.6	30552
 653.1	30663
 653.6	30615
 654.1	30702
 654.7	30714
 655.2	30831
 655.7	30891
 656.3	30931
 656.8	30933
 657.3	31017
 657.8	31007
 658.4	31051
 658.9	31103
 659.4	31189
 659.9	31211
 660.5	31211
 661.0	31270
 661.5	31327
 662.1	31313
 662.6	31343
 663.1	31323
 663.6	31412
 664.2	31373
 664.7	31353
 665.2	31297
 665.7	31403
 666.3	31373
 666.8	31366
 667.3	31373
 667.8	31336
 668.4	31348
 668.9	31350
 669.4	31316
 669.9	31323
 670.5	31250
 671.0	31256
 671.5	31205
 672.0	31233
 672.6	31211
 673.1	31233
 673.6	31145
 674.1	31154
 674.7	31124
 675.2	31158
 675.7	31028
 676.2	31003
 676.8	31046
 677.3	31045
 677.8	30960
 678.3	31037
 678.9	30959
 679.4	30891
 679.9	30935
 680.4	30915
 681.0	30865
 681.5	30892
 682.0	30833
 682.5	30862
 683.1	30759
 683.6	30777
 684.1	30715
 684.6	30799
 685.1	30743
 685.7	30750
 686.2	30725
 686.7	30683
 687.2	30668
 687.8	30723
 688.3	30668
 688.8	30679
 689.3	30633
 689.8	30659
 690.4	30647
 690.9	30657
 691.4	30685
 691.9	30687
 692.4	30669
 693.0	30729
 693.5	30695
 694.0	30691
 694.5	30683
 695.1	30671
 695.6	30633
 696.1	30711
 696.6	30692
 697.1	30710
 697.7	30739
 698.2	30675
 698.7	30695
 699.2	30663
 699.7	30667
 700.3	30626
 700.8	30597
 701.3	30679
 701.8	30637
 702.3	30580
 702.8	30580
 703.4	30563
 703.9	30534
 704.4	30495
 704.9	30452
 705.4	30437
 706.0	30494
 706.5	30461
 707.0	30361
 707.5	30333
 708.0	30339
 708.5	30265
 709.1	30314
 709.6	30260
 710.1	30199
 710.6	30167
 711.1	30135
 711.7	30135
 712.2	30106
 712.7	30109
 713.2	30065
 713.7	30047
 714.2	30002
 714.8	30070
 715.3	30007
 715.8	30001
 716.3	29998
 716.8	29925
 717.3	29907
 717.8	29999
 718.4	30013
 718.9	29955
 719.4	30040
 719.9	29944
 720.4	29991
 720.9	30015
 721.4	30007
 722.0	30039
 722.5	30027
 723.0	30033
 723.5	30049
 724.0	30028
 724.5	30014
 725.0	30059
 725.6	30002
 726.1	30062
 726.6	30171
 727.1	30117
 727.6	30161
 728.1	30191
 728.6	30149
 729.1	30149
 729.7	30136
 730.2	30161
 730.7	30191
 731.2	30227
 731.7	30211
 732.2	30232
 732.7	30207
 733.2	30239
 733.8	30218
 734.3	30247
 734.8	30236
 735.3	30275
 735.8	30279
 736.3	30274
 736.8	30323
 737.3	30385
 737.8	30346
 738.4	30356
 738.9	30315
 739.4	30408
 739.9	30394
 740.4	30421
 740.9	30401
 741.4	30402
 741.9	30395
 742.4	30406
 742.9	30393
 743.4	30453
 744.0	30358
 744.5	30350
 745.0	30346
 745.5	30404
 746.0	30367
 746.5	30364
 747.0	30295
 747.5	30263
 748.0	30225
 748.5	30236
 749.0	30222
 749.5	30285
 750.0	30111
 750.5	30135
 751.1	30116
 751.6	30094
 752.1	30050
 752.6	29999
 753.1	30010
 753.6	29923
 754.1	29879
 754.6	29881
 755.1	29807
 755.6	29786
 756.1	29677
 756.6	29737
 757.1	29679
 757.6	29633
 758.1	29556
 758.6	29531
 759.1	29426
 759.6	29433
 760.1	29341
 760.7	29263
 761.2	29304
 761.7	29232
 762.2	29183
 762.7	29189
 763.2	29042
 763.7	29075
 764.2	28978
 764.7	28936
 765.2	28926
 765.7	28844
 766.2	28778
 766.7	28771
 767.2	28680
 767.7	28646
 768.2	28589
 768.7	28510
 769.2	28467
 769.7	28472
 770.2	28413
 770.7	28381
 771.2	28326
 771.7	28284
 772.2	28271
 772.7	28287
 773.2	28239
 773.7	28165
 774.2	28100
 774.7	28114
 775.2	28069
 775.7	28040
 776.2	28002
 776.7	28022
 777.2	27930
 777.7	27981
 778.2	27946
 778.7	27973
 779.2	27959
 779.7	27968
 780.2	27809
 780.7	27857
 781.2	27845
 781.7	27890
 782.2	27810
 782.6	27866
 783.1	27855
 783.6	27809
 784.1	27759
 784.6	27752
 785.1	27756
 785.6	27745
 786.1	27750
 786.6	27755
 787.1	27695
 787.6	27679
 788.1	27654
 788.6	27635
 789.1	27605
 789.6	27613
 790.1	27613
 790.6	27602
 791.1	27491
 791.6	27472
 792.0	27457
 792.5	27463
 793.0	27419
 793.5	27390
 794.0	27310
 794.5	27363
 795.0	27302
 795.5	27266
 796.0	27231
 796.5	27159
 797.0	27135
 797.5	27146
 798.0	26969
 798.4	26961
 798.9	26906
 799.4	26881
 799.9	26844
 800.4	26675
 800.9	26732
 801.4	26735
 801.9	26641
 802.4	26529
 802.9	26530
 803.3	26481
 803.8	26403
 804.3	26311
 804.8	26323
 805.3	26231
 805.8	26162
 806.3	26107
 806.8	26050
 807.2	25992
 807.7	25923
 808.2	25893
 808.7	25779
 809.2	25739
 809.7	25623
 810.2	25647
 810.7	25542
 811.1	25508
 811.6	25465
 812.1	25379
 812.6	25297
 813.1	25300
 813.6	25279
 814.1	25224
 814.5	25149
 815.0	25131
 815.5	25049
 816.0	24984
 816.5	25002
 817.0	24921
 817.4	24872
 817.9	24868
 818.4	24759
 818.9	24813
 819.4	24739
 819.9	24687
 820.3	24634
 820.8	24602
 821.3	24583
 821.8	24569
 822.3	24478
 822.7	24435
 823.2	24471
 823.7	24407
 824.2	24387
 824.7	24337
 825.2	24327
 825.6	24285
 826.1	24257
 826.6	24281
 827.1	24241
 827.6	24223
 828.0	24151
 828.5	24111
 829.0	24126
 829.5	24052
 829.9	24044
 830.4	24079
 830.9	24039
 831.4	24055
 831.9	23995
 832.3	24050
 832.8	23975
 833.3	23969
 833.8	24026
 834.2	24003
 834.7	23842
 835.2	23919
 835.7	23911
 836.1	23890
 836.6	23864
 837.1	23853
 837.6	23842
 838.0	23865
 838.5	23873
 839.0	23864
 839.5	23845
 839.9	23759
 840.4	23753
 840.9	23714
 841.4	23737
 841.8	23747
 842.3	23741
 842.8	23750
 843.3	23734
 843.7	23620
 844.2	23608
 844.7	23672
 845.1	23638
 845.6	23547
 846.1	23558
 846.6	23579
 847.0	23475
 847.5	23507
 848.0	23469
 848.4	23495
 848.9	23450
 849.4	23404
 849.8	23408
 850.3	23391
 850.8	23424
 851.3	23367
 851.7	23347
 852.2	23333
 852.7	23311
 853.1	23271
 853.6	23206
 854.1	23227
 854.5	23177
 855.0	23141
 855.5	23119
 855.9	23163
 856.4	23121
 856.9	23029
 857.3	23057
 857.8	23001
 858.3	23007
 858.7	22943
 859.2	22953
 859.7	22947
 860.1	22985
 860.6	22947
 861.1	22869
 861.5	22890
 862.0	22879
 862.4	22833
 862.9	22776
 863.4	22803
 863.8	22787
 864.3	22769
 864.8	22671
 865.2	22698
 865.7	22695
 866.1	22697
 866.6	22598
 867.1	22657
 867.5	22621
 868.0	22579
 868.5	22516
 868.9	22494
 869.4	22571
 869.8	22507
 870.3	22446
 870.8	22501
 871.2	22438
 871.7	22411
 872.1	22346
 872.6	22375
 873.0	22326
 873.5	22382
 874.0	22345
 874.4	22207
 874.9	22211
 875.3	22142
 875.8	22019
 876.2	21800
 876.7	21635
 877.2	21283
 877.6	20857
 878.1	20416
