#xlabel Wavelength (nm)
#ylabel Spectrometer Array Counts
#title Exposure time is 10000 ms
## lambda	counts
 349.8	17349
 350.3	17636
 350.8	17896
 351.3	18086
 351.9	18186
 352.4	18295
 352.9	18355
 353.4	18315
 354.0	18312
 354.5	18350
 355.0	18353
 355.5	18365
 356.0	18326
 356.6	18294
 357.1	18348
 357.6	18328
 358.1	18355
 358.7	18296
 359.2	18314
 359.7	18333
 360.2	18371
 360.8	18345
 361.3	18436
 361.8	18390
 362.3	18417
 362.9	18377
 363.4	18455
 363.9	18458
 364.4	18493
 364.9	18402
 365.5	18481
 366.0	18459
 366.5	18422
 367.0	18465
 367.6	18499
 368.1	18505
 368.6	18438
 369.1	18503
 369.7	18555
 370.2	18481
 370.7	18486
 371.2	18533
 371.8	18588
 372.3	18515
 372.8	18603
 373.3	18610
 373.9	18566
 374.4	18584
 374.9	18634
 375.5	18538
 376.0	18663
 376.5	18637
 377.0	18666
 377.6	18614
 378.1	18703
 378.6	18648
 379.1	18651
 379.7	18639
 380.2	18726
 380.7	18732
 381.2	18697
 381.8	18693
 382.3	18744
 382.8	18734
 383.4	18781
 383.9	18738
 384.4	18891
 384.9	18805
 385.5	18826
 386.0	18837
 386.5	18913
 387.1	18847
 387.6	18872
 388.1	18879
 388.6	18905
 389.2	18899
 389.7	18930
 390.2	18913
 390.8	19014
 391.3	18997
 391.8	19013
 392.3	19012
 392.9	19018
 393.4	19023
 393.9	19108
 394.5	19118
 395.0	19086
 395.5	19117
 396.0	19126
 396.6	19108
 397.1	19204
 397.6	19213
 398.2	19223
 398.7	19227
 399.2	19323
 399.8	19201
 400.3	19275
 400.8	19319
 401.3	19302
 401.9	19323
 402.4	19351
 402.9	19345
 403.5	19385
 404.0	19381
 404.5	19345
 405.1	19367
 405.6	19476
 406.1	19463
 406.7	19486
 407.2	19508
 407.7	19604
 408.2	19613
 408.8	19630
 409.3	19678
 409.8	19745
 410.4	19717
 410.9	19739
 411.4	19707
 412.0	19776
 412.5	19842
 413.0	19806
 413.6	19858
 414.1	19837
 414.6	19885
 415.2	19937
 415.7	19890
 416.2	19953
 416.8	19949
 417.3	19956
 417.8	19983
 418.4	20083
 418.9	20036
 419.4	20177
 420.0	20079
 420.5	20158
 421.0	20111
 421.5	20210
 422.1	20197
 422.6	20263
 423.1	20300
 423.7	20282
 424.2	20276
 424.7	20323
 425.3	20311
 425.8	20345
 426.3	20339
 426.9	20405
 427.4	20362
 427.9	20487
 428.5	20439
 429.0	20498
 429.6	20477
 430.1	20575
 430.6	20599
 431.2	20573
 431.7	20696
 432.2	20695
 432.8	20699
 433.3	20838
 433.8	20873
 434.4	20874
 434.9	20921
 435.4	20997
 436.0	21005
 436.5	21027
 437.0	21118
 437.6	21120
 438.1	21177
 438.6	21194
 439.2	21237
 439.7	21229
 440.2	21187
 440.8	21225
 441.3	21229
 441.8	21237
 442.4	21208
 442.9	21239
 443.5	21273
 444.0	21274
 444.5	21303
 445.1	21225
 445.6	21272
 446.1	21311
 446.7	21349
 447.2	21386
 447.7	21397
 448.3	21497
 448.8	21483
 449.3	21560
 449.9	21545
 450.4	21689
 450.9	21768
 451.5	21812
 452.0	21828
 452.6	21891
 453.1	21998
 453.6	22049
 454.2	21990
 454.7	22099
 455.2	22157
 455.8	22240
 456.3	22204
 456.8	22359
 457.4	22315
 457.9	22343
 458.5	22398
 459.0	22375
 459.5	22421
 460.1	22382
 460.6	22437
 461.1	22425
 461.7	22477
 462.2	22436
 462.7	22476
 463.3	22409
 463.8	22483
 464.4	22553
 464.9	22513
 465.4	22590
 466.0	22520
 466.5	22605
 467.0	22562
 467.6	22649
 468.1	22764
 468.7	22728
 469.2	22690
 469.7	22815
 470.3	22827
 470.8	22903
 471.3	22914
 471.9	22918
 472.4	22997
 473.0	23068
 473.5	23119
 474.0	23150
 474.6	23185
 475.1	23213
 475.6	23310
 476.2	23351
 476.7	23342
 477.3	23424
 477.8	23403
 478.3	23349
 478.9	23582
 479.4	23495
 479.9	23540
 480.5	23556
 481.0	23620
 481.6	23663
 482.1	23761
 482.6	23772
 483.2	23821
 483.7	23961
 484.2	23932
 484.8	23815
 485.3	23941
 485.9	24041
 486.4	24037
 486.9	24091
 487.5	24080
 488.0	24124
 488.6	24202
 489.1	24245
 489.6	24313
 490.2	24331
 490.7	24324
 491.2	24301
 491.8	24381
 492.3	24345
 492.9	24399
 493.4	24413
 493.9	24437
 494.5	24448
 495.0	24503
 495.6	24429
 496.1	24438
 496.6	24487
 497.2	24405
 497.7	24376
 498.2	24450
 498.8	24468
 499.3	24394
 499.9	24448
 500.4	24461
 500.9	24453
 501.5	24470
 502.0	24576
 502.6	24583
 503.1	24699
 503.6	24709
 504.2	24709
 504.7	24766
 505.2	24879
 505.8	24921
 506.3	25072
 506.9	25151
 507.4	25186
 507.9	25229
 508.5	25333
 509.0	25448
 509.6	25588
 510.1	25621
 510.6	25728
 511.2	25807
 511.7	25866
 512.2	25982
 512.8	26058
 513.3	26075
 513.9	26106
 514.4	26202
 514.9	26303
 515.5	26228
 516.0	26313
 516.6	26279
 517.1	26327
 517.6	26290
 518.2	26261
 518.7	26181
 519.3	26207
 519.8	26214
 520.3	26172
 520.9	26112
 521.4	26089
 521.9	26115
 522.5	26006
 523.0	25987
 523.6	26014
 524.1	25859
 524.6	25895
 525.2	25911
 525.7	25955
 526.3	25905
 526.8	26003
 527.3	25976
 527.9	26018
 528.4	26033
 528.9	26129
 529.5	26178
 530.0	26214
 530.6	26305
 531.1	26365
 531.6	26342
 532.2	26521
 532.7	26551
 533.3	26661
 533.8	26845
 534.3	26948
 534.9	27021
 535.4	27053
 536.0	27190
 536.5	27297
 537.0	27333
 537.6	27427
 538.1	27537
 538.6	27617
 539.2	27617
 539.7	27693
 540.3	27828
 540.8	27836
 541.3	27833
 541.9	27901
 542.4	27923
 543.0	28007
 543.5	27986
 544.0	27974
 544.6	28009
 545.1	28034
 545.6	28055
 546.2	28046
 546.7	27947
 547.3	28013
 547.8	27979
 548.3	28015
 548.9	27922
 549.4	27909
 550.0	27873
 550.5	27931
 551.0	27956
 551.6	27908
 552.1	27912
 552.6	27918
 553.2	27868
 553.7	27854
 554.3	27889
 554.8	27965
 555.3	27831
 555.9	27908
 556.4	27902
 556.9	28018
 557.5	28053
 558.0	28035
 558.6	28042
 559.1	28133
 559.6	28149
 560.2	28180
 560.7	28217
 561.3	28218
 561.8	28232
 562.3	28373
 562.9	28379
 563.4	28450
 563.9	28462
 564.5	28499
 565.0	28506
 565.6	28551
 566.1	28565
 566.6	28576
 567.2	28579
 567.7	28686
 568.2	28635
 568.8	28644
 569.3	28638
 569.9	28701
 570.4	28693
 570.9	28687
 571.5	28686
 572.0	28698
 572.5	28767
 573.1	28731
 573.6	28808
 574.1	28814
 574.7	28829
 575.2	28829
 575.8	28899
 576.3	28995
 576.8	28992
 577.4	29033
 577.9	29079
 578.4	29089
 579.0	29134
 579.5	29273
 580.1	29236
 580.6	29298
 581.1	29408
 581.7	29474
 582.2	29467
 582.7	29527
 583.3	29611
 583.8	29619
 584.3	29598
 584.9	29689
 585.4	29717
 586.0	29727
 586.5	29786
 587.0	29794
 587.6	29891
 588.1	29861
 588.6	29942
 589.2	29903
 589.7	29939
 590.2	29935
 590.8	29925
 591.3	29952
 591.9	29885
 592.4	29929
 592.9	29852
 593.5	29822
 594.0	29797
 594.5	29783
 595.1	29732
 595.6	29672
 596.1	29699
 596.7	29635
 597.2	29645
 597.7	29557
 598.3	29547
 598.8	29495
 599.3	29463
 599.9	29398
 600.4	29373
 601.0	29356
 601.5	29327
 602.0	29302
 602.6	29260
 603.1	29271
 603.6	29267
 604.2	29354
 604.7	29285
 605.2	29363
 605.8	29295
 606.3	29339
 606.8	29420
 607.4	29433
 607.9	29505
 608.4	29477
 609.0	29549
 609.5	29617
 610.0	29628
 610.6	29750
 611.1	29707
 611.6	29791
 612.2	29837
 612.7	29927
 613.2	29968
 613.8	29960
 614.3	30047
 614.8	30126
 615.4	30135
 615.9	30286
 616.4	30403
 617.0	30406
 617.5	30538
 618.0	30629
 618.6	30655
 619.1	30761
 619.6	30897
 620.2	30997
 620.7	31132
 621.2	31179
 621.8	31281
 622.3	31387
 622.8	31422
 623.4	31508
 623.9	31607
 624.4	31632
 625.0	31661
 625.5	31679
 626.0	31710
 626.6	31775
 627.1	31761
 627.6	31713
 628.2	31683
 628.7	31723
 629.2	31698
 629.8	31703
 630.3	31682
 630.8	31641
 631.4	31577
 631.9	31554
 632.4	31411
 632.9	31369
 633.5	31329
 634.0	31247
 634.5	31244
 635.1	31135
 635.6	31091
 636.1	31014
 636.7	30986
 637.2	30943
 637.7	30807
 638.3	30861
 638.8	30796
 639.3	30782
 639.8	30674
 640.4	30669
 640.9	30666
 641.4	30559
 642.0	30514
 642.5	30510
 643.0	30473
 643.6	30541
 644.1	30485
 644.6	30497
 645.1	30510
 645.7	30515
 646.2	30466
 646.7	30499
 647.3	30524
 647.8	30551
 648.3	30535
 648.9	30592
 649.4	30534
 649.9	30612
 650.4	30649
 651.0	30725
 651.5	30767
 652.0	30842
 652.6	30832
 653.1	30939
 653.6	30893
 654.1	30985
 654.7	30989
 655.2	31113
 655.7	31176
 656.3	31217
 656.8	31215
 657.3	31304
 657.8	31290
 658.4	31336
 658.9	31383
 659.4	31476
 659.9	31502
 660.5	31505
 661.0	31558
 661.5	31615
 662.1	31609
 662.6	31636
 663.1	31608
 663.6	31706
 664.2	31661
 664.7	31650
 665.2	31592
 665.7	31690
 666.3	31658
 666.8	31659
 667.3	31659
 667.8	31623
 668.4	31633
 668.9	31634
 669.4	31597
 669.9	31607
 670.5	31535
 671.0	31544
 671.5	31493
 672.0	31511
 672.6	31495
 673.1	31519
 673.6	31418
 674.1	31433
 674.7	31409
 675.2	31432
 675.7	31305
 676.2	31279
 676.8	31325
 677.3	31315
 677.8	31231
 678.3	31313
 678.9	31238
 679.4	31159
 679.9	31213
 680.4	31190
 681.0	31143
 681.5	31160
 682.0	31105
 682.5	31128
 683.1	31033
 683.6	31044
 684.1	30984
 684.6	31071
 685.1	31015
 685.7	31015
 686.2	30990
 686.7	30949
 687.2	30943
 687.8	30983
 688.3	30931
 688.8	30951
 689.3	30886
 689.8	30917
 690.4	30907
 690.9	30929
 691.4	30951
 691.9	30947
 692.4	30925
 693.0	30994
 693.5	30961
 694.0	30955
 694.5	30947
 695.1	30934
 695.6	30896
 696.1	30969
 696.6	30957
 697.1	30983
 697.7	31003
 698.2	30941
 698.7	30967
 699.2	30927
 699.7	30936
 700.3	30890
 700.8	30859
 701.3	30940
 701.8	30903
 702.3	30841
 702.8	30837
 703.4	30820
 703.9	30794
 704.4	30750
 704.9	30709
 705.4	30697
 706.0	30751
 706.5	30719
 707.0	30615
 707.5	30584
 708.0	30589
 708.5	30522
 709.1	30566
 709.6	30511
 710.1	30449
 710.6	30417
 711.1	30383
 711.7	30383
 712.2	30352
 712.7	30357
 713.2	30309
 713.7	30293
 714.2	30245
 714.8	30319
 715.3	30257
 715.8	30246
 716.3	30243
 716.8	30171
 717.3	30157
 717.8	30245
 718.4	30248
 718.9	30193
 719.4	30276
 719.9	30184
 720.4	30235
 720.9	30257
 721.4	30250
 722.0	30280
 722.5	30275
 723.0	30269
 723.5	30286
 724.0	30266
 724.5	30257
 725.0	30299
 725.6	30245
 726.1	30309
 726.6	30413
 727.1	30356
 727.6	30403
 728.1	30434
 728.6	30394
 729.1	30395
 729.7	30381
 730.2	30405
 730.7	30428
 731.2	30467
 731.7	30457
 732.2	30472
 732.7	30446
 733.2	30484
 733.8	30454
 734.3	30493
 734.8	30484
 735.3	30520
 735.8	30521
 736.3	30517
 736.8	30574
 737.3	30632
 737.8	30591
 738.4	30597
 738.9	30559
 739.4	30655
 739.9	30638
 740.4	30666
 740.9	30643
 741.4	30645
 741.9	30641
 742.4	30656
 742.9	30641
 743.4	30701
 744.0	30607
 744.5	30595
 745.0	30591
 745.5	30643
 746.0	30606
 746.5	30609
 747.0	30534
 747.5	30502
 748.0	30467
 748.5	30481
 749.0	30460
 749.5	30521
 750.0	30351
 750.5	30370
 751.1	30351
 751.6	30326
 752.1	30278
 752.6	30231
 753.1	30242
 753.6	30153
 754.1	30105
 754.6	30117
 755.1	30041
 755.6	30014
 756.1	29907
 756.6	29960
 757.1	29903
 757.6	29849
 758.1	29777
 758.6	29745
 759.1	29641
 759.6	29645
 760.1	29559
 760.7	29478
 761.2	29525
 761.7	29453
 762.2	29403
 762.7	29400
 763.2	29257
 763.7	29289
 764.2	29190
 764.7	29150
 765.2	29135
 765.7	29055
 766.2	28981
 766.7	28977
 767.2	28885
 767.7	28852
 768.2	28786
 768.7	28715
 769.2	28664
 769.7	28675
 770.2	28611
 770.7	28586
 771.2	28526
 771.7	28483
 772.2	28467
 772.7	28486
 773.2	28434
 773.7	28361
 774.2	28303
 774.7	28313
 775.2	28269
 775.7	28234
 776.2	28201
 776.7	28214
 777.2	28125
 777.7	28171
 778.2	28134
 778.7	28164
 779.2	28149
 779.7	28161
 780.2	27998
 780.7	28055
 781.2	28034
 781.7	28078
 782.2	28002
 782.6	28059
 783.1	28042
 783.6	28004
 784.1	27947
 784.6	27937
 785.1	27940
 785.6	27929
 786.1	27939
 786.6	27948
 787.1	27883
 787.6	27867
 788.1	27843
 788.6	27821
 789.1	27795
 789.6	27802
 790.1	27805
 790.6	27783
 791.1	27671
 791.6	27659
 792.0	27638
 792.5	27639
 793.0	27597
 793.5	27567
 794.0	27485
 794.5	27547
 795.0	27481
 795.5	27442
 796.0	27414
 796.5	27334
 797.0	27315
 797.5	27315
 798.0	27143
 798.4	27131
 798.9	27081
 799.4	27047
 799.9	27019
 800.4	26843
 800.9	26895
 801.4	26901
 801.9	26808
 802.4	26693
 802.9	26698
 803.3	26648
 803.8	26563
 804.3	26475
 804.8	26476
 805.3	26386
 805.8	26319
 806.3	26259
 806.8	26207
 807.2	26145
 807.7	26067
 808.2	26043
 808.7	25928
 809.2	25891
 809.7	25775
 810.2	25791
 810.7	25692
 811.1	25654
 811.6	25607
 812.1	25517
 812.6	25442
 813.1	25435
 813.6	25414
 814.1	25367
 814.5	25286
 815.0	25270
 815.5	25188
 816.0	25113
 816.5	25133
 817.0	25047
 817.4	25004
 817.9	25001
 818.4	24892
 818.9	24942
 819.4	24869
 819.9	24819
 820.3	24763
 820.8	24731
 821.3	24712
 821.8	24697
 822.3	24603
 822.7	24562
 823.2	24595
 823.7	24527
 824.2	24510
 824.7	24462
 825.2	24447
 825.6	24406
 826.1	24375
 826.6	24407
 827.1	24367
 827.6	24351
 828.0	24270
 828.5	24231
 829.0	24243
 829.5	24174
 829.9	24162
 830.4	24199
 830.9	24153
 831.4	24174
 831.9	24113
 832.3	24167
 832.8	24095
 833.3	24085
 833.8	24143
 834.2	24119
 834.7	23963
 835.2	24039
 835.7	24027
 836.1	24003
 836.6	23973
 837.1	23965
 837.6	23960
 838.0	23977
 838.5	23986
 839.0	23980
 839.5	23959
 839.9	23869
 840.4	23871
 840.9	23827
 841.4	23850
 841.8	23865
 842.3	23858
 842.8	23864
 843.3	23849
 843.7	23736
 844.2	23715
 844.7	23778
 845.1	23741
 845.6	23654
 846.1	23668
 846.6	23687
 847.0	23582
 847.5	23610
 848.0	23583
 848.4	23598
 848.9	23549
 849.4	23513
 849.8	23515
 850.3	23496
 850.8	23530
 851.3	23471
 851.7	23453
 852.2	23439
 852.7	23415
 853.1	23374
 853.6	23311
 854.1	23332
 854.5	23273
 855.0	23248
 855.5	23220
 855.9	23258
 856.4	23220
 856.9	23127
 857.3	23159
 857.8	23101
 858.3	23111
 858.7	23045
 859.2	23051
 859.7	23045
 860.1	23088
 860.6	23044
 861.1	22967
 861.5	22987
 862.0	22968
 862.4	22927
 862.9	22876
 863.4	22901
 863.8	22884
 864.3	22863
 864.8	22772
 865.2	22793
 865.7	22797
 866.1	22792
 866.6	22694
 867.1	22751
 867.5	22719
 868.0	22673
 868.5	22611
 868.9	22590
 869.4	22666
 869.8	22606
 870.3	22542
 870.8	22594
 871.2	22534
 871.7	22508
 872.1	22445
 872.6	22479
 873.0	22436
 873.5	22498
 874.0	22479
 874.4	22363
 874.9	22389
 875.3	22348
 875.8	22250
 876.2	22046
 876.7	21863
 877.2	21487
 877.6	21009
 878.1	20501
