#xlabel Wavelength (nm)
#ylabel Spectrometer Array Counts
#title Exposure time is 10000 ms
## lambda	counts
 349.8	17159
 350.3	17396
 350.8	17624
 351.3	17795
 351.9	17893
 352.4	18010
 352.9	18088
 353.4	18060
 354.0	18075
 354.5	18121
 355.0	18137
 355.5	18158
 356.0	18122
 356.6	18093
 357.1	18143
 357.6	18125
 358.1	18149
 358.7	18090
 359.2	18105
 359.7	18121
 360.2	18157
 360.8	18125
 361.3	18221
 361.8	18164
 362.3	18188
 362.9	18149
 363.4	18219
 363.9	18219
 364.4	18249
 364.9	18156
 365.5	18225
 366.0	18206
 366.5	18164
 367.0	18209
 367.6	18236
 368.1	18233
 368.6	18162
 369.1	18227
 369.7	18274
 370.2	18195
 370.7	18193
 371.2	18231
 371.8	18289
 372.3	18209
 372.8	18281
 373.3	18294
 373.9	18237
 374.4	18259
 374.9	18293
 375.5	18190
 376.0	18313
 376.5	18277
 377.0	18299
 377.6	18243
 378.1	18326
 378.6	18259
 379.1	18258
 379.7	18237
 380.2	18310
 380.7	18307
 381.2	18273
 381.8	18257
 382.3	18297
 382.8	18277
 383.4	18320
 383.9	18275
 384.4	18418
 384.9	18333
 385.5	18351
 386.0	18351
 386.5	18422
 387.1	18351
 387.6	18371
 388.1	18368
 388.6	18391
 389.2	18373
 389.7	18395
 390.2	18371
 390.8	18459
 391.3	18416
 391.8	18423
 392.3	18412
 392.9	18409
 393.4	18395
 393.9	18462
 394.5	18463
 395.0	18412
 395.5	18431
 396.0	18431
 396.6	18394
 397.1	18492
 397.6	18483
 398.2	18489
 398.7	18485
 399.2	18571
 399.8	18453
 400.3	18518
 400.8	18560
 401.3	18531
 401.9	18545
 402.4	18563
 402.9	18550
 403.5	18577
 404.0	18570
 404.5	18515
 405.1	18525
 405.6	18613
 406.1	18587
 406.7	18593
 407.2	18603
 407.7	18679
 408.2	18673
 408.8	18671
 409.3	18705
 409.8	18748
 410.4	18709
 410.9	18711
 411.4	18665
 412.0	18719
 412.5	18771
 413.0	18721
 413.6	18765
 414.1	18721
 414.6	18758
 415.2	18801
 415.7	18741
 416.2	18789
 416.8	18772
 417.3	18757
 417.8	18782
 418.4	18865
 418.9	18802
 419.4	18931
 420.0	18817
 420.5	18879
 421.0	18824
 421.5	18910
 422.1	18890
 422.6	18944
 423.1	18966
 423.7	18934
 424.2	18918
 424.7	18957
 425.3	18932
 425.8	18956
 426.3	18939
 426.9	18999
 427.4	18939
 427.9	19050
 428.5	18991
 429.0	19029
 429.6	18990
 430.1	19070
 430.6	19067
 431.2	19013
 431.7	19103
 432.2	19080
 432.8	19051
 433.3	19163
 433.8	19169
 434.4	19143
 434.9	19163
 435.4	19207
 436.0	19191
 436.5	19187
 437.0	19264
 437.6	19237
 438.1	19294
 438.6	19295
 439.2	19327
 439.7	19309
 440.2	19259
 440.8	19293
 441.3	19288
 441.8	19297
 442.4	19270
 442.9	19292
 443.5	19326
 444.0	19320
 444.5	19348
 445.1	19263
 445.6	19298
 446.1	19319
 446.7	19336
 447.2	19356
 447.7	19351
 448.3	19417
 448.8	19391
 449.3	19428
 449.9	19380
 450.4	19481
 450.9	19523
 451.5	19527
 452.0	19503
 452.6	19529
 453.1	19586
 453.6	19602
 454.2	19506
 454.7	19585
 455.2	19603
 455.8	19660
 456.3	19605
 456.8	19735
 457.4	19661
 457.9	19675
 458.5	19718
 459.0	19685
 459.5	19724
 460.1	19674
 460.6	19731
 461.1	19713
 461.7	19758
 462.2	19706
 462.7	19749
 463.3	19679
 463.8	19755
 464.4	19819
 464.9	19761
 465.4	19823
 466.0	19738
 466.5	19810
 467.0	19746
 467.6	19817
 468.1	19907
 468.7	19841
 469.2	19779
 469.7	19873
 470.3	19859
 470.8	19901
 471.3	19882
 471.9	19856
 472.4	19912
 473.0	19957
 473.5	19977
 474.0	19974
 474.6	19983
 475.1	19981
 475.6	20055
 476.2	20070
 476.7	20052
 477.3	20117
 477.8	20057
 478.3	19996
 478.9	20198
 479.4	20091
 479.9	20107
 480.5	20103
 481.0	20130
 481.6	20162
 482.1	20221
 482.6	20211
 483.2	20226
 483.7	20344
 484.2	20285
 484.8	20130
 485.3	20231
 485.9	20314
 486.4	20279
 486.9	20300
 487.5	20270
 488.0	20283
 488.6	20344
 489.1	20356
 489.6	20413
 490.2	20415
 490.7	20374
 491.2	20351
 491.8	20411
 492.3	20363
 492.9	20413
 493.4	20428
 493.9	20442
 494.5	20443
 495.0	20509
 495.6	20431
 496.1	20443
 496.6	20498
 497.2	20417
 497.7	20386
 498.2	20470
 498.8	20489
 499.3	20407
 499.9	20465
 500.4	20465
 500.9	20447
 501.5	20440
 502.0	20518
 502.6	20499
 503.1	20586
 503.6	20563
 504.2	20525
 504.7	20544
 505.2	20615
 505.8	20610
 506.3	20704
 506.9	20723
 507.4	20702
 507.9	20699
 508.5	20741
 509.0	20801
 509.6	20882
 510.1	20859
 510.6	20910
 511.2	20947
 511.7	20943
 512.2	21022
 512.8	21050
 513.3	21026
 513.9	21024
 514.4	21089
 514.9	21167
 515.5	21073
 516.0	21151
 516.6	21121
 517.1	21165
 517.6	21142
 518.2	21122
 518.7	21057
 519.3	21103
 519.8	21135
 520.3	21131
 520.9	21077
 521.4	21079
 521.9	21128
 522.5	21043
 523.0	21061
 523.6	21097
 524.1	20945
 524.6	20991
 525.2	21018
 525.7	21051
 526.3	20980
 526.8	21073
 527.3	21027
 527.9	21051
 528.4	21045
 528.9	21109
 529.5	21127
 530.0	21119
 530.6	21183
 531.1	21200
 531.6	21128
 532.2	21257
 532.7	21230
 533.3	21277
 533.8	21413
 534.3	21462
 534.9	21474
 535.4	21438
 536.0	21519
 536.5	21578
 537.0	21555
 537.6	21590
 538.1	21657
 538.6	21690
 539.2	21644
 539.7	21673
 540.3	21779
 540.8	21752
 541.3	21721
 541.9	21761
 542.4	21767
 543.0	21833
 543.5	21797
 544.0	21775
 544.6	21829
 545.1	21833
 545.6	21872
 546.2	21852
 546.7	21766
 547.3	21825
 547.8	21801
 548.3	21845
 548.9	21761
 549.4	21761
 550.0	21727
 550.5	21791
 551.0	21834
 551.6	21777
 552.1	21791
 552.6	21791
 553.2	21769
 553.7	21742
 554.3	21781
 554.8	21849
 555.3	21711
 555.9	21783
 556.4	21751
 556.9	21847
 557.5	21873
 558.0	21838
 558.6	21819
 559.1	21895
 559.6	21883
 560.2	21891
 560.7	21900
 561.3	21872
 561.8	21863
 562.3	21983
 562.9	21970
 563.4	22011
 563.9	22006
 564.5	22014
 565.0	22009
 565.6	22038
 566.1	22041
 566.6	22043
 567.2	22037
 567.7	22135
 568.2	22051
 568.8	22067
 569.3	22043
 569.9	22109
 570.4	22096
 570.9	22075
 571.5	22071
 572.0	22067
 572.5	22129
 573.1	22072
 573.6	22135
 574.1	22122
 574.7	22123
 575.2	22103
 575.8	22150
 576.3	22224
 576.8	22197
 577.4	22215
 577.9	22234
 578.4	22206
 579.0	22217
 579.5	22327
 580.1	22261
 580.6	22275
 581.1	22365
 581.7	22385
 582.2	22339
 582.7	22384
 583.3	22434
 583.8	22415
 584.3	22367
 584.9	22443
 585.4	22439
 586.0	22433
 586.5	22466
 587.0	22432
 587.6	22513
 588.1	22468
 588.6	22547
 589.2	22485
 589.7	22513
 590.2	22505
 590.8	22495
 591.3	22521
 591.9	22467
 592.4	22525
 592.9	22458
 593.5	22448
 594.0	22433
 594.5	22443
 595.1	22419
 595.6	22386
 596.1	22439
 596.7	22395
 597.2	22424
 597.7	22359
 598.3	22363
 598.8	22325
 599.3	22331
 599.9	22297
 600.4	22289
 601.0	22288
 601.5	22275
 602.0	22267
 602.6	22218
 603.1	22231
 603.6	22229
 604.2	22326
 604.7	22237
 605.2	22303
 605.8	22223
 606.3	22252
 606.8	22323
 607.4	22308
 607.9	22349
 608.4	22300
 609.0	22340
 609.5	22389
 610.0	22370
 610.6	22471
 611.1	22399
 611.6	22433
 612.2	22442
 612.7	22504
 613.2	22510
 613.8	22445
 614.3	22491
 614.8	22556
 615.4	22495
 615.9	22597
 616.4	22665
 617.0	22626
 617.5	22729
 618.0	22750
 618.6	22702
 619.1	22743
 619.6	22834
 620.2	22849
 620.7	22922
 621.2	22909
 621.8	22955
 622.3	22997
 622.8	22973
 623.4	23011
 623.9	23083
 624.4	23067
 625.0	23073
 625.5	23081
 626.0	23097
 626.6	23147
 627.1	23135
 627.6	23093
 628.2	23058
 628.7	23089
 629.2	23066
 629.8	23093
 630.3	23101
 630.8	23079
 631.4	23053
 631.9	23058
 632.4	22951
 632.9	22955
 633.5	22941
 634.0	22889
 634.5	22957
 635.1	22880
 635.6	22854
 636.1	22822
 636.7	22863
 637.2	22850
 637.7	22741
 638.3	22831
 638.8	22807
 639.3	22809
 639.8	22757
 640.4	22763
 640.9	22786
 641.4	22690
 642.0	22670
 642.5	22687
 643.0	22649
 643.6	22733
 644.1	22692
 644.6	22702
 645.1	22730
 645.7	22713
 646.2	22676
 646.7	22695
 647.3	22722
 647.8	22726
 648.3	22708
 648.9	22743
 649.4	22662
 649.9	22735
 650.4	22743
 651.0	22795
 651.5	22815
 652.0	22859
 652.6	22817
 653.1	22905
 653.6	22822
 654.1	22906
 654.7	22869
 655.2	22957
 655.7	22995
 656.3	23012
 656.8	22963
 657.3	23033
 657.8	22990
 658.4	22988
 658.9	23005
 659.4	23087
 659.9	23090
 660.5	23063
 661.0	23115
 661.5	23162
 662.1	23125
 662.6	23140
 663.1	23106
 663.6	23188
 664.2	23138
 664.7	23112
 665.2	23050
 665.7	23160
 666.3	23134
 666.8	23131
 667.3	23132
 667.8	23101
 668.4	23124
 668.9	23124
 669.4	23108
 669.9	23133
 670.5	23067
 671.0	23087
 671.5	23034
 672.0	23089
 672.6	23090
 673.1	23114
 673.6	23026
 674.1	23054
 674.7	23043
 675.2	23083
 675.7	22948
 676.2	22955
 676.8	23003
 677.3	23019
 677.8	22943
 678.3	23048
 678.9	22980
 679.4	22923
 679.9	22979
 680.4	22981
 681.0	22938
 681.5	22976
 682.0	22941
 682.5	22971
 683.1	22879
 683.6	22924
 684.1	22865
 684.6	22963
 685.1	22902
 685.7	22921
 686.2	22891
 686.7	22855
 687.2	22844
 687.8	22910
 688.3	22855
 688.8	22871
 689.3	22819
 689.8	22846
 690.4	22847
 690.9	22845
 691.4	22856
 691.9	22879
 692.4	22847
 693.0	22913
 693.5	22882
 694.0	22868
 694.5	22857
 695.1	22843
 695.6	22808
 696.1	22874
 696.6	22856
 697.1	22875
 697.7	22903
 698.2	22834
 698.7	22856
 699.2	22822
 699.7	22833
 700.3	22807
 700.8	22787
 701.3	22883
 701.8	22845
 702.3	22789
 702.8	22796
 703.4	22768
 703.9	22779
 704.4	22761
 704.9	22724
 705.4	22730
 706.0	22814
 706.5	22799
 707.0	22713
 707.5	22698
 708.0	22726
 708.5	22670
 709.1	22729
 709.6	22693
 710.1	22659
 710.6	22634
 711.1	22629
 711.7	22646
 712.2	22645
 712.7	22653
 713.2	22625
 713.7	22623
 714.2	22589
 714.8	22663
 715.3	22609
 715.8	22610
 716.3	22622
 716.8	22531
 717.3	22518
 717.8	22627
 718.4	22636
 718.9	22573
 719.4	22654
 719.9	22559
 720.4	22611
 720.9	22623
 721.4	22614
 722.0	22640
 722.5	22626
 723.0	22615
 723.5	22621
 724.0	22592
 724.5	22580
 725.0	22607
 725.6	22542
 726.1	22594
 726.6	22706
 727.1	22648
 727.6	22687
 728.1	22707
 728.6	22668
 729.1	22655
 729.7	22642
 730.2	22671
 730.7	22698
 731.2	22727
 731.7	22712
 732.2	22721
 732.7	22704
 733.2	22743
 733.8	22727
 734.3	22739
 734.8	22713
 735.3	22739
 735.8	22726
 736.3	22705
 736.8	22742
 737.3	22779
 737.8	22737
 738.4	22733
 738.9	22685
 739.4	22771
 739.9	22756
 740.4	22761
 740.9	22752
 741.4	22750
 741.9	22741
 742.4	22763
 742.9	22747
 743.4	22822
 744.0	22738
 744.5	22733
 745.0	22747
 745.5	22816
 746.0	22790
 746.5	22793
 747.0	22735
 747.5	22719
 748.0	22684
 748.5	22701
 749.0	22715
 749.5	22793
 750.0	22632
 750.5	22683
 751.1	22690
 751.6	22683
 752.1	22670
 752.6	22631
 753.1	22656
 753.6	22589
 754.1	22552
 754.6	22592
 755.1	22541
 755.6	22545
 756.1	22462
 756.6	22556
 757.1	22515
 757.6	22491
 758.1	22450
 758.6	22458
 759.1	22383
 759.6	22414
 760.1	22345
 760.7	22308
 761.2	22377
 761.7	22323
 762.2	22298
 762.7	22341
 763.2	22199
 763.7	22279
 764.2	22209
 764.7	22197
 765.2	22225
 765.7	22186
 766.2	22136
 766.7	22175
 767.2	22119
 767.7	22119
 768.2	22093
 768.7	22047
 769.2	22036
 769.7	22073
 770.2	22033
 770.7	22033
 771.2	22005
 771.7	21970
 772.2	21980
 772.7	22016
 773.2	21991
 773.7	21941
 774.2	21889
 774.7	21934
 775.2	21913
 775.7	21893
 776.2	21881
 776.7	21903
 777.2	21827
 777.7	21900
 778.2	21881
 778.7	21908
 779.2	21914
 779.7	21938
 780.2	21785
 780.7	21851
 781.2	21854
 781.7	21915
 782.2	21838
 782.6	21906
 783.1	21907
 783.6	21868
 784.1	21833
 784.6	21822
 785.1	21834
 785.6	21823
 786.1	21852
 786.6	21863
 787.1	21809
 787.6	21807
 788.1	21799
 788.6	21785
 789.1	21773
 789.6	21809
 790.1	21816
 790.6	21811
 791.1	21713
 791.6	21712
 792.0	21733
 792.5	21757
 793.0	21743
 793.5	21728
 794.0	21658
 794.5	21743
 795.0	21719
 795.5	21687
 796.0	21691
 796.5	21634
 797.0	21650
 797.5	21688
 798.0	21535
 798.4	21571
 798.9	21545
 799.4	21558
 799.9	21553
 800.4	21419
 800.9	21504
 801.4	21556
 801.9	21505
 802.4	21426
 802.9	21479
 803.3	21463
 803.8	21426
 804.3	21365
 804.8	21416
 805.3	21355
 805.8	21339
 806.3	21325
 806.8	21301
 807.2	21282
 807.7	21250
 808.2	21261
 808.7	21182
 809.2	21179
 809.7	21106
 810.2	21158
 810.7	21092
 811.1	21098
 811.6	21090
 812.1	21035
 812.6	20991
 813.1	21027
 813.6	21042
 814.1	21011
 814.5	20961
 815.0	20974
 815.5	20931
 816.0	20881
 816.5	20941
 817.0	20881
 817.4	20857
 817.9	20885
 818.4	20812
 818.9	20893
 819.4	20834
 819.9	20811
 820.3	20773
 820.8	20769
 821.3	20764
 821.8	20783
 822.3	20715
 822.7	20693
 823.2	20748
 823.7	20696
 824.2	20689
 824.7	20667
 825.2	20676
 825.6	20654
 826.1	20639
 826.6	20687
 827.1	20667
 827.6	20659
 828.0	20601
 828.5	20569
 829.0	20604
 829.5	20549
 829.9	20547
 830.4	20597
 830.9	20578
 831.4	20601
 831.9	20554
 832.3	20631
 832.8	20567
 833.3	20565
 833.8	20639
 834.2	20626
 834.7	20470
 835.2	20560
 835.7	20564
 836.1	20551
 836.6	20535
 837.1	20535
 837.6	20539
 838.0	20576
 838.5	20591
 839.0	20594
 839.5	20582
 839.9	20498
 840.4	20503
 840.9	20470
 841.4	20506
 841.8	20524
 842.3	20531
 842.8	20553
 843.3	20548
 843.7	20442
 844.2	20426
 844.7	20517
 845.1	20488
 845.6	20409
 846.1	20427
 846.6	20455
 847.0	20357
 847.5	20404
 848.0	20388
 848.4	20415
 848.9	20383
 849.4	20367
 849.8	20382
 850.3	20373
 850.8	20418
 851.3	20375
 851.7	20369
 852.2	20373
 852.7	20356
 853.1	20333
 853.6	20281
 854.1	20319
 854.5	20284
 855.0	20266
 855.5	20254
 855.9	20314
 856.4	20296
 856.9	20209
 857.3	20257
 857.8	20229
 858.3	20266
 858.7	20217
 859.2	20231
 859.7	20225
 860.1	20273
 860.6	20251
 861.1	20184
 861.5	20223
 862.0	20229
 862.4	20197
 862.9	20161
 863.4	20197
 863.8	20188
 864.3	20186
 864.8	20105
 865.2	20147
 865.7	20169
 866.1	20177
 866.6	20089
 867.1	20163
 867.5	20144
 868.0	20116
 868.5	20069
 868.9	20069
 869.4	20163
 869.8	20103
 870.3	20061
 870.8	20122
 871.2	20071
 871.7	20054
 872.1	20002
 872.6	20039
 873.0	20008
 873.5	20072
 874.0	20046
 874.4	19929
 874.9	19958
 875.3	19907
 875.8	19808
 876.2	19613
 876.7	19482
 877.2	19177
 877.6	18806
 878.1	18437
