#xlabel Wavelength (nm)
#ylabel Spectrometer Array Counts
#title Exposure time is 10000 ms
## lambda	counts
 349.8	17412
 350.3	17706
 350.8	17939
 351.3	18093
 351.9	18146
 352.4	18213
 352.9	18251
 353.4	18193
 354.0	18188
 354.5	18223
 355.0	18231
 355.5	18250
 356.0	18219
 356.6	18189
 357.1	18244
 357.6	18223
 358.1	18255
 358.7	18193
 359.2	18208
 359.7	18231
 360.2	18271
 360.8	18240
 361.3	18333
 361.8	18279
 362.3	18308
 362.9	18269
 363.4	18338
 363.9	18340
 364.4	18371
 364.9	18285
 365.5	18356
 366.0	18337
 366.5	18300
 367.0	18343
 367.6	18379
 368.1	18373
 368.6	18312
 369.1	18376
 369.7	18429
 370.2	18354
 370.7	18355
 371.2	18404
 371.8	18459
 372.3	18385
 372.8	18465
 373.3	18484
 373.9	18435
 374.4	18450
 374.9	18505
 375.5	18410
 376.0	18531
 376.5	18503
 377.0	18534
 377.6	18483
 378.1	18565
 378.6	18509
 379.1	18512
 379.7	18505
 380.2	18586
 380.7	18590
 381.2	18551
 381.8	18550
 382.3	18598
 382.8	18586
 383.4	18635
 383.9	18591
 384.4	18747
 384.9	18666
 385.5	18685
 386.0	18691
 386.5	18765
 387.1	18702
 387.6	18729
 388.1	18735
 388.6	18760
 389.2	18752
 389.7	18784
 390.2	18772
 390.8	18875
 391.3	18847
 391.8	18860
 392.3	18861
 392.9	18871
 393.4	18871
 393.9	18951
 394.5	18966
 395.0	18925
 395.5	18957
 396.0	18971
 396.6	18947
 397.1	19043
 397.6	19054
 398.2	19059
 398.7	19067
 399.2	19164
 399.8	19045
 400.3	19115
 400.8	19169
 401.3	19147
 401.9	19170
 402.4	19193
 402.9	19190
 403.5	19228
 404.0	19229
 404.5	19185
 405.1	19203
 405.6	19311
 406.1	19302
 406.7	19323
 407.2	19343
 407.7	19430
 408.2	19443
 408.8	19457
 409.3	19503
 409.8	19561
 410.4	19539
 410.9	19551
 411.4	19516
 412.0	19587
 412.5	19649
 413.0	19611
 413.6	19662
 414.1	19640
 414.6	19682
 415.2	19737
 415.7	19688
 416.2	19750
 416.8	19741
 417.3	19742
 417.8	19775
 418.4	19875
 418.9	19825
 419.4	19963
 420.0	19865
 420.5	19940
 421.0	19894
 421.5	19987
 422.1	19975
 422.6	20035
 423.1	20078
 423.7	20053
 424.2	20047
 424.7	20092
 425.3	20073
 425.8	20107
 426.3	20100
 426.9	20170
 427.4	20123
 427.9	20241
 428.5	20199
 429.0	20250
 429.6	20229
 430.1	20325
 430.6	20341
 431.2	20314
 431.7	20431
 432.2	20429
 432.8	20428
 433.3	20558
 433.8	20586
 434.4	20592
 434.9	20626
 435.4	20703
 436.0	20703
 436.5	20719
 437.0	20813
 437.6	20806
 438.1	20867
 438.6	20885
 439.2	20926
 439.7	20918
 440.2	20873
 440.8	20905
 441.3	20907
 441.8	20924
 442.4	20892
 442.9	20922
 443.5	20955
 444.0	20960
 444.5	20984
 445.1	20909
 445.6	20952
 446.1	20990
 446.7	21025
 447.2	21057
 447.7	21063
 448.3	21160
 448.8	21148
 449.3	21215
 449.9	21199
 450.4	21331
 450.9	21405
 451.5	21445
 452.0	21458
 452.6	21512
 453.1	21609
 453.6	21652
 454.2	21587
 454.7	21694
 455.2	21749
 455.8	21826
 456.3	21795
 456.8	21936
 457.4	21889
 457.9	21918
 458.5	21967
 459.0	21944
 459.5	21989
 460.1	21952
 460.6	22001
 461.1	21990
 461.7	22041
 462.2	21997
 462.7	22033
 463.3	21972
 463.8	22046
 464.4	22112
 464.9	22068
 465.4	22150
 466.0	22072
 466.5	22157
 467.0	22115
 467.6	22202
 468.1	22303
 468.7	22263
 469.2	22223
 469.7	22344
 470.3	22350
 470.8	22422
 471.3	22426
 471.9	22422
 472.4	22500
 473.0	22571
 473.5	22612
 474.0	22637
 474.6	22672
 475.1	22693
 475.6	22787
 476.2	22817
 476.7	22821
 477.3	22896
 477.8	22866
 478.3	22810
 478.9	23033
 479.4	22946
 479.9	22988
 480.5	23000
 481.0	23053
 481.6	23100
 482.1	23187
 482.6	23197
 483.2	23240
 483.7	23379
 484.2	23346
 484.8	23225
 485.3	23340
 485.9	23435
 486.4	23427
 486.9	23478
 487.5	23463
 488.0	23501
 488.6	23575
 489.1	23614
 489.6	23684
 490.2	23697
 490.7	23677
 491.2	23655
 491.8	23735
 492.3	23696
 492.9	23751
 493.4	23765
 493.9	23793
 494.5	23798
 495.0	23853
 495.6	23777
 496.1	23783
 496.6	23838
 497.2	23754
 497.7	23727
 498.2	23803
 498.8	23819
 499.3	23747
 499.9	23803
 500.4	23806
 500.9	23802
 501.5	23816
 502.0	23911
 502.6	23912
 503.1	24031
 503.6	24030
 504.2	24025
 504.7	24077
 505.2	24180
 505.8	24217
 506.3	24354
 506.9	24425
 507.4	24451
 507.9	24488
 508.5	24583
 509.0	24683
 509.6	24818
 510.1	24839
 510.6	24931
 511.2	25006
 511.7	25051
 512.2	25165
 512.8	25237
 513.3	25243
 513.9	25272
 514.4	25357
 514.9	25465
 515.5	25375
 516.0	25464
 516.6	25425
 517.1	25473
 517.6	25444
 518.2	25407
 518.7	25332
 519.3	25366
 519.8	25373
 520.3	25338
 520.9	25279
 521.4	25260
 521.9	25287
 522.5	25181
 523.0	25169
 523.6	25191
 524.1	25041
 524.6	25078
 525.2	25097
 525.7	25140
 526.3	25086
 526.8	25186
 527.3	25155
 527.9	25194
 528.4	25202
 528.9	25288
 529.5	25331
 530.0	25364
 530.6	25451
 531.1	25505
 531.6	25473
 532.2	25635
 532.7	25663
 533.3	25759
 533.8	25932
 534.3	26035
 534.9	26091
 535.4	26115
 536.0	26241
 536.5	26343
 537.0	26368
 537.6	26448
 538.1	26552
 538.6	26620
 539.2	26617
 539.7	26675
 540.3	26806
 540.8	26813
 541.3	26804
 541.9	26860
 542.4	26884
 543.0	26965
 543.5	26935
 544.0	26924
 544.6	26963
 545.1	26987
 545.6	27013
 546.2	26994
 546.7	26898
 547.3	26962
 547.8	26933
 548.3	26969
 548.9	26869
 549.4	26867
 550.0	26835
 550.5	26885
 551.0	26921
 551.6	26869
 552.1	26877
 552.6	26875
 553.2	26835
 553.7	26819
 554.3	26848
 554.8	26927
 555.3	26788
 555.9	26865
 556.4	26852
 556.9	26969
 557.5	27009
 558.0	26987
 558.6	26990
 559.1	27069
 559.6	27083
 560.2	27117
 560.7	27145
 561.3	27142
 561.8	27143
 562.3	27285
 562.9	27293
 563.4	27362
 563.9	27363
 564.5	27404
 565.0	27409
 565.6	27443
 566.1	27455
 566.6	27473
 567.2	27472
 567.7	27570
 568.2	27512
 568.8	27521
 569.3	27518
 569.9	27583
 570.4	27565
 570.9	27558
 571.5	27557
 572.0	27571
 572.5	27631
 573.1	27594
 573.6	27669
 574.1	27670
 574.7	27693
 575.2	27687
 575.8	27746
 576.3	27847
 576.8	27834
 577.4	27868
 577.9	27911
 578.4	27915
 579.0	27957
 579.5	28091
 580.1	28041
 580.6	28097
 581.1	28211
 581.7	28266
 582.2	28247
 582.7	28306
 583.3	28379
 583.8	28387
 584.3	28367
 584.9	28452
 585.4	28469
 586.0	28480
 586.5	28535
 587.0	28530
 587.6	28629
 588.1	28601
 588.6	28681
 589.2	28641
 589.7	28669
 590.2	28668
 590.8	28649
 591.3	28680
 591.9	28619
 592.4	28665
 592.9	28588
 593.5	28560
 594.0	28543
 594.5	28535
 595.1	28478
 595.6	28427
 596.1	28455
 596.7	28403
 597.2	28407
 597.7	28329
 598.3	28319
 598.8	28275
 599.3	28245
 599.9	28187
 600.4	28159
 601.0	28143
 601.5	28120
 602.0	28097
 602.6	28053
 603.1	28063
 603.6	28066
 604.2	28156
 604.7	28085
 605.2	28155
 605.8	28083
 606.3	28127
 606.8	28205
 607.4	28219
 607.9	28282
 608.4	28251
 609.0	28321
 609.5	28387
 610.0	28392
 610.6	28511
 611.1	28466
 611.6	28541
 612.2	28569
 612.7	28663
 613.2	28693
 613.8	28681
 614.3	28758
 614.8	28837
 615.4	28838
 615.9	28980
 616.4	29089
 617.0	29083
 617.5	29211
 618.0	29296
 618.6	29302
 619.1	29402
 619.6	29525
 620.2	29610
 620.7	29739
 621.2	29779
 621.8	29865
 622.3	29957
 622.8	29991
 623.4	30069
 623.9	30166
 624.4	30182
 625.0	30205
 625.5	30221
 626.0	30247
 626.6	30312
 627.1	30297
 627.6	30258
 628.2	30222
 628.7	30265
 629.2	30241
 629.8	30246
 630.3	30233
 630.8	30192
 631.4	30135
 631.9	30121
 632.4	29982
 632.9	29959
 633.5	29909
 634.0	29835
 634.5	29844
 635.1	29746
 635.6	29706
 636.1	29631
 636.7	29618
 637.2	29575
 637.7	29441
 638.3	29505
 638.8	29450
 639.3	29437
 639.8	29343
 640.4	29342
 640.9	29334
 641.4	29234
 642.0	29199
 642.5	29191
 643.0	29148
 643.6	29229
 644.1	29173
 644.6	29187
 645.1	29198
 645.7	29198
 646.2	29153
 646.7	29181
 647.3	29211
 647.8	29237
 648.3	29219
 648.9	29268
 649.4	29212
 649.9	29292
 650.4	29322
 651.0	29395
 651.5	29427
 652.0	29508
 652.6	29484
 653.1	29587
 653.6	29538
 654.1	29623
 654.7	29625
 655.2	29738
 655.7	29803
 656.3	29838
 656.8	29831
 657.3	29913
 657.8	29902
 658.4	29935
 658.9	29981
 659.4	30069
 659.9	30087
 660.5	30091
 661.0	30147
 661.5	30203
 662.1	30184
 662.6	30205
 663.1	30182
 663.6	30279
 664.2	30226
 664.7	30213
 665.2	30161
 665.7	30266
 666.3	30231
 666.8	30230
 667.3	30227
 667.8	30192
 668.4	30209
 668.9	30209
 669.4	30175
 669.9	30187
 670.5	30121
 671.0	30122
 671.5	30069
 672.0	30104
 672.6	30085
 673.1	30113
 673.6	30011
 674.1	30027
 674.7	30000
 675.2	30037
 675.7	29901
 676.2	29882
 676.8	29935
 677.3	29923
 677.8	29847
 678.3	29925
 678.9	29853
 679.4	29780
 679.9	29831
 680.4	29817
 681.0	29772
 681.5	29791
 682.0	29737
 682.5	29763
 683.1	29669
 683.6	29686
 684.1	29630
 684.6	29713
 685.1	29646
 685.7	29659
 686.2	29629
 686.7	29589
 687.2	29579
 687.8	29634
 688.3	29575
 688.8	29596
 689.3	29533
 689.8	29567
 690.4	29554
 690.9	29563
 691.4	29589
 691.9	29594
 692.4	29571
 693.0	29634
 693.5	29606
 694.0	29598
 694.5	29584
 695.1	29575
 695.6	29537
 696.1	29604
 696.6	29601
 697.1	29619
 697.7	29637
 698.2	29578
 698.7	29595
 699.2	29567
 699.7	29571
 700.3	29523
 700.8	29499
 701.3	29585
 701.8	29542
 702.3	29482
 702.8	29481
 703.4	29467
 703.9	29439
 704.4	29403
 704.9	29358
 705.4	29353
 706.0	29404
 706.5	29371
 707.0	29281
 707.5	29247
 708.0	29258
 708.5	29188
 709.1	29234
 709.6	29182
 710.1	29123
 710.6	29091
 711.1	29060
 711.7	29062
 712.2	29041
 712.7	29043
 713.2	28999
 713.7	28993
 714.2	28943
 714.8	29015
 715.3	28951
 715.8	28953
 716.3	28953
 716.8	28876
 717.3	28867
 717.8	28956
 718.4	28967
 718.9	28907
 719.4	28988
 719.9	28903
 720.4	28948
 720.9	28967
 721.4	28957
 722.0	28993
 722.5	28985
 723.0	28989
 723.5	28999
 724.0	28971
 724.5	28967
 725.0	29004
 725.6	28951
 726.1	29007
 726.6	29117
 727.1	29059
 727.6	29106
 728.1	29131
 728.6	29091
 729.1	29087
 729.7	29069
 730.2	29105
 730.7	29131
 731.2	29158
 731.7	29148
 732.2	29163
 732.7	29135
 733.2	29178
 733.8	29146
 734.3	29177
 734.8	29163
 735.3	29203
 735.8	29200
 736.3	29193
 736.8	29244
 737.3	29303
 737.8	29256
 738.4	29266
 738.9	29222
 739.4	29322
 739.9	29299
 740.4	29325
 740.9	29309
 741.4	29311
 741.9	29304
 742.4	29320
 742.9	29299
 743.4	29366
 744.0	29273
 744.5	29261
 745.0	29259
 745.5	29315
 746.0	29278
 746.5	29275
 747.0	29207
 747.5	29183
 748.0	29151
 748.5	29157
 749.0	29151
 749.5	29213
 750.0	29045
 750.5	29070
 751.1	29051
 751.6	29031
 752.1	28987
 752.6	28943
 753.1	28959
 753.6	28871
 754.1	28825
 754.6	28837
 755.1	28767
 755.6	28751
 756.1	28642
 756.6	28705
 757.1	28650
 757.6	28606
 758.1	28535
 758.6	28511
 759.1	28413
 759.6	28419
 760.1	28334
 760.7	28263
 761.2	28312
 761.7	28243
 762.2	28196
 762.7	28201
 763.2	28063
 763.7	28103
 764.2	28000
 764.7	27963
 765.2	27964
 765.7	27890
 766.2	27826
 766.7	27824
 767.2	27734
 767.7	27702
 768.2	27646
 768.7	27579
 769.2	27539
 769.7	27543
 770.2	27495
 770.7	27471
 771.2	27422
 771.7	27375
 772.2	27368
 772.7	27385
 773.2	27343
 773.7	27276
 774.2	27211
 774.7	27226
 775.2	27189
 775.7	27159
 776.2	27125
 776.7	27143
 777.2	27053
 777.7	27107
 778.2	27072
 778.7	27100
 779.2	27093
 779.7	27104
 780.2	26942
 780.7	26997
 781.2	26984
 781.7	27031
 782.2	26950
 782.6	27011
 783.1	26993
 783.6	26959
 784.1	26914
 784.6	26899
 785.1	26902
 785.6	26894
 786.1	26902
 786.6	26908
 787.1	26849
 787.6	26831
 788.1	26808
 788.6	26792
 789.1	26766
 789.6	26778
 790.1	26782
 790.6	26763
 791.1	26657
 791.6	26640
 792.0	26630
 792.5	26639
 793.0	26603
 793.5	26569
 794.0	26491
 794.5	26553
 795.0	26491
 795.5	26457
 796.0	26434
 796.5	26361
 797.0	26350
 797.5	26354
 798.0	26183
 798.4	26181
 798.9	26129
 799.4	26114
 799.9	26076
 800.4	25914
 800.9	25971
 801.4	25987
 801.9	25905
 802.4	25791
 802.9	25802
 803.3	25758
 803.8	25681
 804.3	25600
 804.8	25609
 805.3	25523
 805.8	25465
 806.3	25419
 806.8	25363
 807.2	25310
 807.7	25247
 808.2	25223
 808.7	25113
 809.2	25081
 809.7	24970
 810.2	24996
 810.7	24903
 811.1	24870
 811.6	24832
 812.1	24751
 812.6	24679
 813.1	24686
 813.6	24668
 814.1	24619
 814.5	24546
 815.0	24535
 815.5	24450
 816.0	24389
 816.5	24413
 817.0	24337
 817.4	24296
 817.9	24295
 818.4	24195
 818.9	24245
 819.4	24181
 819.9	24127
 820.3	24079
 820.8	24054
 821.3	24032
 821.8	24025
 822.3	23933
 822.7	23895
 823.2	23933
 823.7	23867
 824.2	23851
 824.7	23810
 825.2	23802
 825.6	23759
 826.1	23739
 826.6	23768
 827.1	23734
 827.6	23714
 828.0	23643
 828.5	23599
 829.0	23619
 829.5	23549
 829.9	23537
 830.4	23574
 830.9	23539
 831.4	23559
 831.9	23502
 832.3	23559
 832.8	23482
 833.3	23477
 833.8	23539
 834.2	23519
 834.7	23358
 835.2	23435
 835.7	23428
 836.1	23410
 836.6	23379
 837.1	23371
 837.6	23368
 838.0	23393
 838.5	23405
 839.0	23389
 839.5	23372
 839.9	23283
 840.4	23284
 840.9	23244
 841.4	23268
 841.8	23279
 842.3	23279
 842.8	23289
 843.3	23278
 843.7	23166
 844.2	23141
 844.7	23211
 845.1	23179
 845.6	23095
 846.1	23101
 846.6	23126
 847.0	23021
 847.5	23057
 848.0	23023
 848.4	23045
 848.9	22991
 849.4	22955
 849.8	22963
 850.3	22955
 850.8	22979
 851.3	22926
 851.7	22907
 852.2	22895
 852.7	22872
 853.1	22831
 853.6	22767
 854.1	22795
 854.5	22737
 855.0	22709
 855.5	22683
 855.9	22725
 856.4	22693
 856.9	22599
 857.3	22628
 857.8	22573
 858.3	22586
 858.7	22518
 859.2	22523
 859.7	22517
 860.1	22558
 860.6	22518
 861.1	22439
 861.5	22462
 862.0	22452
 862.4	22409
 862.9	22354
 863.4	22374
 863.8	22363
 864.3	22340
 864.8	22246
 865.2	22277
 865.7	22279
 866.1	22271
 866.6	22181
 867.1	22243
 867.5	22214
 868.0	22175
 868.5	22110
 868.9	22098
 869.4	22175
 869.8	22120
 870.3	22061
 870.8	22114
 871.2	22055
 871.7	22025
 872.1	21957
 872.6	21988
 873.0	21940
 873.5	22000
 874.0	21971
 874.4	21861
 874.9	21907
 875.3	21898
 875.8	21855
 876.2	21716
 876.7	21617
 877.2	21295
 877.6	20818
 878.1	20261
