#xlabel Wavelength (nm)
#ylabel Spectrometer Array Counts
#title Exposure time is 10000 ms
## lambda	counts
 349.8	17228
 350.3	17466
 350.8	17702
 351.3	17884
 351.9	17982
 352.4	18099
 352.9	18181
 353.4	18155
 354.0	18167
 354.5	18217
 355.0	18230
 355.5	18250
 356.0	18211
 356.6	18179
 357.1	18229
 357.6	18210
 358.1	18235
 358.7	18177
 359.2	18190
 359.7	18207
 360.2	18245
 360.8	18207
 361.3	18299
 361.8	18252
 362.3	18280
 362.9	18239
 363.4	18312
 363.9	18313
 364.4	18340
 364.9	18255
 365.5	18331
 366.0	18316
 366.5	18272
 367.0	18314
 367.6	18349
 368.1	18345
 368.6	18282
 369.1	18348
 369.7	18400
 370.2	18325
 370.7	18330
 371.2	18369
 371.8	18427
 372.3	18353
 372.8	18432
 373.3	18447
 373.9	18398
 374.4	18423
 374.9	18476
 375.5	18375
 376.0	18500
 376.5	18467
 377.0	18499
 377.6	18449
 378.1	18534
 378.6	18473
 379.1	18484
 379.7	18471
 380.2	18554
 380.7	18559
 381.2	18525
 381.8	18520
 382.3	18567
 382.8	18555
 383.4	18602
 383.9	18558
 384.4	18713
 384.9	18627
 385.5	18648
 386.0	18659
 386.5	18730
 387.1	18666
 387.6	18696
 388.1	18701
 388.6	18726
 389.2	18719
 389.7	18755
 390.2	18742
 390.8	18836
 391.3	18815
 391.8	18826
 392.3	18822
 392.9	18830
 393.4	18834
 393.9	18914
 394.5	18930
 395.0	18891
 395.5	18921
 396.0	18933
 396.6	18910
 397.1	19011
 397.6	19009
 398.2	19026
 398.7	19033
 399.2	19126
 399.8	19007
 400.3	19077
 400.8	19127
 401.3	19109
 401.9	19134
 402.4	19159
 402.9	19154
 403.5	19189
 404.0	19193
 404.5	19147
 405.1	19166
 405.6	19275
 406.1	19260
 406.7	19286
 407.2	19301
 407.7	19393
 408.2	19403
 408.8	19412
 409.3	19464
 409.8	19523
 410.4	19500
 410.9	19516
 411.4	19477
 412.0	19550
 412.5	19612
 413.0	19577
 413.6	19625
 414.1	19596
 414.6	19642
 415.2	19697
 415.7	19649
 416.2	19703
 416.8	19701
 417.3	19701
 417.8	19733
 418.4	19832
 418.9	19782
 419.4	19921
 420.0	19821
 420.5	19897
 421.0	19847
 421.5	19941
 422.1	19930
 422.6	19993
 423.1	20033
 423.7	20008
 424.2	20001
 424.7	20048
 425.3	20035
 425.8	20065
 426.3	20055
 426.9	20126
 427.4	20080
 427.9	20197
 428.5	20150
 429.0	20204
 429.6	20181
 430.1	20279
 430.6	20296
 431.2	20265
 431.7	20382
 432.2	20380
 432.8	20380
 433.3	20510
 433.8	20539
 434.4	20538
 434.9	20578
 435.4	20651
 436.0	20651
 436.5	20668
 437.0	20762
 437.6	20753
 438.1	20815
 438.6	20834
 439.2	20873
 439.7	20863
 440.2	20822
 440.8	20853
 441.3	20860
 441.8	20870
 442.4	20843
 442.9	20873
 443.5	20906
 444.0	20909
 444.5	20935
 445.1	20865
 445.6	20905
 446.1	20945
 446.7	20973
 447.2	21005
 447.7	21017
 448.3	21103
 448.8	21101
 449.3	21165
 449.9	21143
 450.4	21279
 450.9	21352
 451.5	21384
 452.0	21399
 452.6	21454
 453.1	21554
 453.6	21596
 454.2	21535
 454.7	21643
 455.2	21692
 455.8	21771
 456.3	21737
 456.8	21879
 457.4	21833
 457.9	21855
 458.5	21908
 459.0	21885
 459.5	21931
 460.1	21885
 460.6	21943
 461.1	21933
 461.7	21979
 462.2	21933
 462.7	21976
 463.3	21917
 463.8	21985
 464.4	22057
 464.9	22014
 465.4	22091
 466.0	22014
 466.5	22101
 467.0	22051
 467.6	22137
 468.1	22245
 468.7	22202
 469.2	22166
 469.7	22287
 470.3	22290
 470.8	22358
 471.3	22363
 471.9	22363
 472.4	22438
 473.0	22503
 473.5	22552
 474.0	22570
 474.6	22603
 475.1	22622
 475.6	22717
 476.2	22751
 476.7	22755
 477.3	22831
 477.8	22795
 478.3	22746
 478.9	22965
 479.4	22883
 479.9	22927
 480.5	22930
 481.0	22987
 481.6	23031
 482.1	23119
 482.6	23129
 483.2	23171
 483.7	23309
 484.2	23275
 484.8	23152
 485.3	23275
 485.9	23366
 486.4	23363
 486.9	23408
 487.5	23394
 488.0	23429
 488.6	23505
 489.1	23538
 489.6	23611
 490.2	23631
 490.7	23608
 491.2	23589
 491.8	23661
 492.3	23628
 492.9	23681
 493.4	23697
 493.9	23716
 494.5	23724
 495.0	23782
 495.6	23707
 496.1	23715
 496.6	23765
 497.2	23686
 497.7	23653
 498.2	23727
 498.8	23749
 499.3	23679
 499.9	23730
 500.4	23733
 500.9	23731
 501.5	23747
 502.0	23837
 502.6	23845
 503.1	23956
 503.6	23958
 504.2	23956
 504.7	24005
 505.2	24107
 505.8	24141
 506.3	24281
 506.9	24345
 507.4	24377
 507.9	24413
 508.5	24506
 509.0	24604
 509.6	24741
 510.1	24761
 510.6	24844
 511.2	24927
 511.7	24970
 512.2	25077
 512.8	25151
 513.3	25162
 513.9	25189
 514.4	25270
 514.9	25379
 515.5	25295
 516.0	25378
 516.6	25343
 517.1	25386
 517.6	25358
 518.2	25332
 518.7	25254
 519.3	25277
 519.8	25289
 520.3	25261
 520.9	25197
 521.4	25179
 521.9	25215
 522.5	25104
 523.0	25092
 523.6	25119
 524.1	24966
 524.6	25007
 525.2	25022
 525.7	25065
 526.3	25007
 526.8	25113
 527.3	25075
 527.9	25119
 528.4	25125
 528.9	25215
 529.5	25253
 530.0	25285
 530.6	25377
 531.1	25423
 531.6	25396
 532.2	25559
 532.7	25585
 533.3	25679
 533.8	25850
 534.3	25950
 534.9	26012
 535.4	26024
 536.0	26152
 536.5	26250
 537.0	26278
 537.6	26363
 538.1	26465
 538.6	26533
 539.2	26523
 539.7	26589
 540.3	26719
 540.8	26721
 541.3	26713
 541.9	26775
 542.4	26791
 543.0	26877
 543.5	26850
 544.0	26837
 544.6	26875
 545.1	26902
 545.6	26923
 546.2	26904
 546.7	26809
 547.3	26877
 547.8	26847
 548.3	26879
 548.9	26791
 549.4	26776
 550.0	26744
 550.5	26796
 551.0	26827
 551.6	26785
 552.1	26787
 552.6	26793
 553.2	26746
 553.7	26729
 554.3	26767
 554.8	26838
 555.3	26705
 555.9	26779
 556.4	26767
 556.9	26877
 557.5	26915
 558.0	26895
 558.6	26899
 559.1	26981
 559.6	26994
 560.2	27026
 560.7	27058
 561.3	27051
 561.8	27059
 562.3	27200
 562.9	27205
 563.4	27265
 563.9	27272
 564.5	27311
 565.0	27312
 565.6	27349
 566.1	27363
 566.6	27381
 567.2	27378
 567.7	27482
 568.2	27425
 568.8	27433
 569.3	27427
 569.9	27497
 570.4	27479
 570.9	27467
 571.5	27471
 572.0	27479
 572.5	27542
 573.1	27505
 573.6	27575
 574.1	27583
 574.7	27595
 575.2	27595
 575.8	27658
 576.3	27751
 576.8	27743
 577.4	27780
 577.9	27822
 578.4	27823
 579.0	27862
 579.5	27999
 580.1	27955
 580.6	28013
 581.1	28111
 581.7	28174
 582.2	28152
 582.7	28211
 583.3	28283
 583.8	28290
 584.3	28276
 584.9	28356
 585.4	28379
 586.0	28389
 586.5	28445
 587.0	28439
 587.6	28527
 588.1	28500
 588.6	28579
 589.2	28538
 589.7	28574
 590.2	28568
 590.8	28557
 591.3	28585
 591.9	28524
 592.4	28571
 592.9	28497
 593.5	28471
 594.0	28447
 594.5	28439
 595.1	28383
 595.6	28337
 596.1	28365
 596.7	28306
 597.2	28316
 597.7	28239
 598.3	28225
 598.8	28177
 599.3	28158
 599.9	28093
 600.4	28072
 601.0	28055
 601.5	28033
 602.0	28011
 602.6	27968
 603.1	27979
 603.6	27980
 604.2	28065
 604.7	27998
 605.2	28065
 605.8	27997
 606.3	28040
 606.8	28121
 607.4	28127
 607.9	28186
 608.4	28165
 609.0	28230
 609.5	28292
 610.0	28303
 610.6	28417
 611.1	28373
 611.6	28453
 612.2	28481
 612.7	28574
 613.2	28609
 613.8	28583
 614.3	28669
 614.8	28746
 615.4	28748
 615.9	28887
 616.4	28990
 617.0	28986
 617.5	29116
 618.0	29200
 618.6	29207
 619.1	29305
 619.6	29431
 620.2	29514
 620.7	29643
 621.2	29681
 621.8	29768
 622.3	29861
 622.8	29887
 623.4	29968
 623.9	30065
 624.4	30088
 625.0	30111
 625.5	30125
 626.0	30150
 626.6	30213
 627.1	30195
 627.6	30154
 628.2	30120
 628.7	30163
 629.2	30135
 629.8	30148
 630.3	30124
 630.8	30091
 631.4	30037
 631.9	30019
 632.4	29881
 632.9	29854
 633.5	29809
 634.0	29731
 634.5	29744
 635.1	29647
 635.6	29608
 636.1	29539
 636.7	29528
 637.2	29483
 637.7	29350
 638.3	29406
 638.8	29353
 639.3	29347
 639.8	29255
 640.4	29247
 640.9	29240
 641.4	29141
 642.0	29103
 642.5	29102
 643.0	29062
 643.6	29141
 644.1	29084
 644.6	29101
 645.1	29112
 645.7	29115
 646.2	29060
 646.7	29095
 647.3	29124
 647.8	29145
 648.3	29127
 648.9	29181
 649.4	29117
 649.9	29203
 650.4	29234
 651.0	29305
 651.5	29342
 652.0	29407
 652.6	29394
 653.1	29493
 653.6	29447
 654.1	29535
 654.7	29535
 655.2	29641
 655.7	29710
 656.3	29746
 656.8	29739
 657.3	29822
 657.8	29805
 658.4	29843
 658.9	29889
 659.4	29966
 659.9	29995
 660.5	29989
 661.0	30049
 661.5	30110
 662.1	30089
 662.6	30111
 663.1	30091
 663.6	30177
 664.2	30133
 664.7	30115
 665.2	30061
 665.7	30168
 666.3	30133
 666.8	30127
 667.3	30132
 667.8	30099
 668.4	30117
 668.9	30114
 669.4	30077
 669.9	30094
 670.5	30021
 671.0	30027
 671.5	29974
 672.0	29999
 672.6	29992
 673.1	30014
 673.6	29918
 674.1	29935
 674.7	29911
 675.2	29939
 675.7	29805
 676.2	29790
 676.8	29843
 677.3	29831
 677.8	29750
 678.3	29839
 678.9	29759
 679.4	29684
 679.9	29742
 680.4	29721
 681.0	29676
 681.5	29701
 682.0	29647
 682.5	29673
 683.1	29576
 683.6	29596
 684.1	29535
 684.6	29617
 685.1	29561
 685.7	29573
 686.2	29544
 686.7	29505
 687.2	29494
 687.8	29545
 688.3	29493
 688.8	29509
 689.3	29451
 689.8	29480
 690.4	29468
 690.9	29475
 691.4	29494
 691.9	29504
 692.4	29488
 693.0	29550
 693.5	29519
 694.0	29505
 694.5	29503
 695.1	29485
 695.6	29449
 696.1	29514
 696.6	29504
 697.1	29528
 697.7	29554
 698.2	29480
 698.7	29510
 699.2	29471
 699.7	29483
 700.3	29436
 700.8	29407
 701.3	29495
 701.8	29455
 702.3	29393
 702.8	29390
 703.4	29372
 703.9	29351
 704.4	29313
 704.9	29274
 705.4	29269
 706.0	29317
 706.5	29282
 707.0	29188
 707.5	29162
 708.0	29171
 708.5	29101
 709.1	29151
 709.6	29099
 710.1	29037
 710.6	29006
 711.1	28982
 711.7	28979
 712.2	28958
 712.7	28961
 713.2	28917
 713.7	28908
 714.2	28861
 714.8	28931
 715.3	28870
 715.8	28865
 716.3	28872
 716.8	28796
 717.3	28781
 717.8	28874
 718.4	28887
 718.9	28825
 719.4	28913
 719.9	28815
 720.4	28864
 720.9	28884
 721.4	28877
 722.0	28911
 722.5	28898
 723.0	28902
 723.5	28922
 724.0	28895
 724.5	28883
 725.0	28922
 725.6	28868
 726.1	28925
 726.6	29031
 727.1	28975
 727.6	29020
 728.1	29049
 728.6	29008
 729.1	29010
 729.7	28993
 730.2	29024
 730.7	29043
 731.2	29079
 731.7	29065
 732.2	29085
 732.7	29052
 733.2	29096
 733.8	29068
 734.3	29095
 734.8	29083
 735.3	29122
 735.8	29118
 736.3	29113
 736.8	29163
 737.3	29214
 737.8	29177
 738.4	29186
 738.9	29141
 739.4	29235
 739.9	29218
 740.4	29244
 740.9	29223
 741.4	29221
 741.9	29215
 742.4	29233
 742.9	29218
 743.4	29283
 744.0	29188
 744.5	29176
 745.0	29171
 745.5	29233
 746.0	29197
 746.5	29196
 747.0	29136
 747.5	29103
 748.0	29063
 748.5	29077
 749.0	29074
 749.5	29131
 750.0	28964
 750.5	28994
 751.1	28973
 751.6	28950
 752.1	28915
 752.6	28863
 753.1	28879
 753.6	28797
 754.1	28745
 754.6	28755
 755.1	28687
 755.6	28667
 756.1	28562
 756.6	28628
 757.1	28571
 757.6	28530
 758.1	28459
 758.6	28427
 759.1	28331
 759.6	28343
 760.1	28257
 760.7	28189
 761.2	28237
 761.7	28165
 762.2	28121
 762.7	28126
 763.2	27983
 763.7	28022
 764.2	27926
 764.7	27897
 765.2	27888
 765.7	27814
 766.2	27749
 766.7	27751
 767.2	27661
 767.7	27633
 768.2	27583
 768.7	27510
 769.2	27463
 769.7	27473
 770.2	27423
 770.7	27398
 771.2	27349
 771.7	27307
 772.2	27288
 772.7	27313
 773.2	27266
 773.7	27199
 774.2	27139
 774.7	27155
 775.2	27123
 775.7	27085
 776.2	27059
 776.7	27075
 777.2	26984
 777.7	27036
 778.2	27003
 778.7	27035
 779.2	27021
 779.7	27035
 780.2	26879
 780.7	26930
 781.2	26909
 781.7	26961
 782.2	26883
 782.6	26943
 783.1	26929
 783.6	26893
 784.1	26843
 784.6	26833
 785.1	26832
 785.6	26819
 786.1	26832
 786.6	26843
 787.1	26783
 787.6	26769
 788.1	26745
 788.6	26723
 789.1	26697
 789.6	26704
 790.1	26712
 790.6	26696
 791.1	26586
 791.6	26574
 792.0	26563
 792.5	26575
 793.0	26537
 793.5	26510
 794.0	26424
 794.5	26487
 795.0	26429
 795.5	26390
 796.0	26371
 796.5	26295
 797.0	26279
 797.5	26290
 798.0	26116
 798.4	26111
 798.9	26070
 799.4	26046
 799.9	26017
 800.4	25849
 800.9	25910
 801.4	25919
 801.9	25840
 802.4	25726
 802.9	25744
 803.3	25702
 803.8	25622
 804.3	25542
 804.8	25548
 805.3	25460
 805.8	25411
 806.3	25358
 806.8	25305
 807.2	25258
 807.7	25187
 808.2	25163
 808.7	25054
 809.2	25024
 809.7	24916
 810.2	24935
 810.7	24851
 811.1	24817
 811.6	24781
 812.1	24698
 812.6	24622
 813.1	24633
 813.6	24613
 814.1	24565
 814.5	24488
 815.0	24479
 815.5	24399
 816.0	24337
 816.5	24361
 817.0	24281
 817.4	24239
 817.9	24241
 818.4	24138
 818.9	24192
 819.4	24122
 819.9	24075
 820.3	24027
 820.8	24001
 821.3	23983
 821.8	23967
 822.3	23881
 822.7	23843
 823.2	23881
 823.7	23824
 824.2	23803
 824.7	23758
 825.2	23751
 825.6	23711
 826.1	23685
 826.6	23718
 827.1	23682
 827.6	23661
 828.0	23589
 828.5	23551
 829.0	23565
 829.5	23500
 829.9	23489
 830.4	23527
 830.9	23491
 831.4	23506
 831.9	23451
 832.3	23503
 832.8	23434
 833.3	23427
 833.8	23487
 834.2	23470
 834.7	23310
 835.2	23385
 835.7	23379
 836.1	23361
 836.6	23335
 837.1	23325
 837.6	23323
 838.0	23345
 838.5	23353
 839.0	23345
 839.5	23329
 839.9	23241
 840.4	23237
 840.9	23195
 841.4	23221
 841.8	23230
 842.3	23234
 842.8	23241
 843.3	23232
 843.7	23111
 844.2	23101
 844.7	23163
 845.1	23131
 845.6	23045
 846.1	23052
 846.6	23072
 847.0	22970
 847.5	23005
 848.0	22974
 848.4	22996
 848.9	22945
 849.4	22910
 849.8	22913
 850.3	22902
 850.8	22930
 851.3	22877
 851.7	22863
 852.2	22843
 852.7	22825
 853.1	22784
 853.6	22722
 854.1	22742
 854.5	22695
 855.0	22663
 855.5	22643
 855.9	22683
 856.4	22651
 856.9	22552
 857.3	22580
 857.8	22523
 858.3	22538
 858.7	22477
 859.2	22485
 859.7	22479
 860.1	22517
 860.6	22475
 861.1	22397
 861.5	22422
 862.0	22410
 862.4	22359
 862.9	22306
 863.4	22329
 863.8	22319
 864.3	22302
 864.8	22201
 865.2	22238
 865.7	22236
 866.1	22232
 866.6	22138
 867.1	22202
 867.5	22173
 868.0	22129
 868.5	22071
 868.9	22056
 869.4	22140
 869.8	22078
 870.3	22030
 870.8	22087
 871.2	22030
 871.7	22006
 872.1	21947
 872.6	21987
 873.0	21942
 873.5	21997
 874.0	21961
 874.4	21837
 874.9	21843
 875.3	21785
 875.8	21659
 876.2	21442
 876.7	21281
 877.2	20938
 877.6	20513
 878.1	20089
