#xlabel Wavelength (nm)
#ylabel Spectrometer Array Counts
#title Exposure time is 10000 ms
## lambda	counts
 349.8	17672
 350.3	17939
 350.8	18110
 351.3	18207
 351.9	18220
 352.4	18269
 352.9	18294
 353.4	18232
 354.0	18214
 354.5	18246
 355.0	18258
 355.5	18278
 356.0	18242
 356.6	18215
 357.1	18270
 357.6	18249
 358.1	18279
 358.7	18218
 359.2	18235
 359.7	18258
 360.2	18290
 360.8	18262
 361.3	18361
 361.8	18310
 362.3	18337
 362.9	18295
 363.4	18373
 363.9	18367
 364.4	18400
 364.9	18311
 365.5	18379
 366.0	18372
 366.5	18327
 367.0	18376
 367.6	18405
 368.1	18407
 368.6	18339
 369.1	18406
 369.7	18455
 370.2	18383
 370.7	18379
 371.2	18432
 371.8	18489
 372.3	18417
 372.8	18495
 373.3	18512
 373.9	18463
 374.4	18479
 374.9	18539
 375.5	18435
 376.0	18561
 376.5	18531
 377.0	18561
 377.6	18510
 378.1	18593
 378.6	18534
 379.1	18548
 379.7	18532
 380.2	18615
 380.7	18614
 381.2	18586
 381.8	18577
 382.3	18626
 382.8	18611
 383.4	18665
 383.9	18623
 384.4	18776
 384.9	18694
 385.5	18713
 386.0	18721
 386.5	18796
 387.1	18734
 387.6	18760
 388.1	18765
 388.6	18792
 389.2	18779
 389.7	18812
 390.2	18801
 390.8	18900
 391.3	18878
 391.8	18893
 392.3	18891
 392.9	18898
 393.4	18898
 393.9	18979
 394.5	18995
 395.0	18955
 395.5	18984
 396.0	18998
 396.6	18975
 397.1	19080
 397.6	19080
 398.2	19093
 398.7	19099
 399.2	19196
 399.8	19077
 400.3	19149
 400.8	19202
 401.3	19177
 401.9	19203
 402.4	19229
 402.9	19225
 403.5	19259
 404.0	19257
 404.5	19220
 405.1	19239
 405.6	19347
 406.1	19336
 406.7	19354
 407.2	19377
 407.7	19463
 408.2	19477
 408.8	19492
 409.3	19535
 409.8	19599
 410.4	19570
 410.9	19590
 411.4	19551
 412.0	19624
 412.5	19684
 413.0	19648
 413.6	19704
 414.1	19676
 414.6	19718
 415.2	19769
 415.7	19724
 416.2	19788
 416.8	19775
 417.3	19776
 417.8	19807
 418.4	19914
 418.9	19859
 419.4	19998
 420.0	19901
 420.5	19975
 421.0	19926
 421.5	20024
 422.1	20015
 422.6	20075
 423.1	20111
 423.7	20094
 424.2	20086
 424.7	20127
 425.3	20113
 425.8	20144
 426.3	20133
 426.9	20204
 427.4	20159
 427.9	20283
 428.5	20233
 429.0	20293
 429.6	20263
 430.1	20361
 430.6	20380
 431.2	20351
 431.7	20469
 432.2	20464
 432.8	20465
 433.3	20601
 433.8	20633
 434.4	20631
 434.9	20665
 435.4	20739
 436.0	20742
 436.5	20763
 437.0	20857
 437.6	20848
 438.1	20909
 438.6	20934
 439.2	20967
 439.7	20960
 440.2	20919
 440.8	20950
 441.3	20955
 441.8	20963
 442.4	20932
 442.9	20963
 443.5	21001
 444.0	20998
 444.5	21025
 445.1	20945
 445.6	20998
 446.1	21029
 446.7	21060
 447.2	21094
 447.7	21108
 448.3	21200
 448.8	21191
 449.3	21257
 449.9	21233
 450.4	21370
 450.9	21446
 451.5	21485
 452.0	21502
 452.6	21555
 453.1	21652
 453.6	21700
 454.2	21633
 454.7	21742
 455.2	21797
 455.8	21874
 456.3	21840
 456.8	21987
 457.4	21937
 457.9	21963
 458.5	22023
 459.0	21994
 459.5	22035
 460.1	21996
 460.6	22047
 461.1	22039
 461.7	22086
 462.2	22045
 462.7	22081
 463.3	22023
 463.8	22092
 464.4	22167
 464.9	22120
 465.4	22199
 466.0	22113
 466.5	22208
 467.0	22159
 467.6	22244
 468.1	22354
 468.7	22318
 469.2	22267
 469.7	22393
 470.3	22397
 470.8	22468
 471.3	22470
 471.9	22470
 472.4	22550
 473.0	22619
 473.5	22664
 474.0	22686
 474.6	22719
 475.1	22739
 475.6	22842
 476.2	22870
 476.7	22876
 477.3	22953
 477.8	22914
 478.3	22863
 478.9	23085
 479.4	23000
 479.9	23041
 480.5	23047
 481.0	23103
 481.6	23150
 482.1	23240
 482.6	23252
 483.2	23298
 483.7	23432
 484.2	23397
 484.8	23279
 485.3	23395
 485.9	23491
 486.4	23486
 486.9	23535
 487.5	23518
 488.0	23550
 488.6	23629
 489.1	23673
 489.6	23741
 490.2	23756
 490.7	23736
 491.2	23714
 491.8	23787
 492.3	23751
 492.9	23800
 493.4	23826
 493.9	23843
 494.5	23853
 495.0	23911
 495.6	23834
 496.1	23840
 496.6	23894
 497.2	23811
 497.7	23781
 498.2	23857
 498.8	23872
 499.3	23805
 499.9	23851
 500.4	23857
 500.9	23857
 501.5	23865
 502.0	23964
 502.6	23974
 503.1	24083
 503.6	24087
 504.2	24079
 504.7	24133
 505.2	24238
 505.8	24273
 506.3	24414
 506.9	24479
 507.4	24511
 507.9	24547
 508.5	24641
 509.0	24743
 509.6	24877
 510.1	24898
 510.6	24993
 511.2	25075
 511.7	25115
 512.2	25230
 512.8	25299
 513.3	25308
 513.9	25331
 514.4	25419
 514.9	25523
 515.5	25438
 516.0	25527
 516.6	25490
 517.1	25538
 517.6	25505
 518.2	25473
 518.7	25395
 519.3	25426
 519.8	25428
 520.3	25405
 520.9	25340
 521.4	25318
 521.9	25352
 522.5	25247
 523.0	25231
 523.6	25255
 524.1	25099
 524.6	25138
 525.2	25155
 525.7	25196
 526.3	25138
 526.8	25242
 527.3	25209
 527.9	25251
 528.4	25264
 528.9	25349
 529.5	25391
 530.0	25416
 530.6	25510
 531.1	25559
 531.6	25527
 532.2	25694
 532.7	25719
 533.3	25817
 533.8	25994
 534.3	26098
 534.9	26159
 535.4	26179
 536.0	26307
 536.5	26404
 537.0	26435
 537.6	26515
 538.1	26621
 538.6	26694
 539.2	26681
 539.7	26742
 540.3	26876
 540.8	26879
 541.3	26873
 541.9	26933
 542.4	26952
 543.0	27031
 543.5	27014
 544.0	26997
 544.6	27031
 545.1	27058
 545.6	27077
 546.2	27061
 546.7	26966
 547.3	27031
 547.8	27002
 548.3	27039
 548.9	26935
 549.4	26931
 550.0	26898
 550.5	26955
 551.0	26989
 551.6	26930
 552.1	26941
 552.6	26945
 553.2	26900
 553.7	26887
 554.3	26919
 554.8	26984
 555.3	26855
 555.9	26928
 556.4	26915
 556.9	27031
 557.5	27069
 558.0	27053
 558.6	27055
 559.1	27139
 559.6	27150
 560.2	27181
 560.7	27207
 561.3	27209
 561.8	27210
 562.3	27355
 562.9	27359
 563.4	27424
 563.9	27432
 564.5	27469
 565.0	27470
 565.6	27503
 566.1	27519
 566.6	27533
 567.2	27541
 567.7	27641
 568.2	27582
 568.8	27585
 569.3	27581
 569.9	27649
 570.4	27635
 570.9	27625
 571.5	27627
 572.0	27635
 572.5	27702
 573.1	27660
 573.6	27737
 574.1	27739
 574.7	27762
 575.2	27750
 575.8	27820
 576.3	27907
 576.8	27897
 577.4	27938
 577.9	27984
 578.4	27980
 579.0	28021
 579.5	28160
 580.1	28113
 580.6	28171
 581.1	28280
 581.7	28340
 582.2	28318
 582.7	28380
 583.3	28454
 583.8	28455
 584.3	28439
 584.9	28526
 585.4	28535
 586.0	28557
 586.5	28615
 587.0	28613
 587.6	28702
 588.1	28671
 588.6	28756
 589.2	28711
 589.7	28744
 590.2	28737
 590.8	28731
 591.3	28755
 591.9	28692
 592.4	28740
 592.9	28665
 593.5	28631
 594.0	28607
 594.5	28606
 595.1	28551
 595.6	28499
 596.1	28526
 596.7	28466
 597.2	28479
 597.7	28397
 598.3	28387
 598.8	28339
 599.3	28318
 599.9	28249
 600.4	28223
 601.0	28213
 601.5	28190
 602.0	28171
 602.6	28125
 603.1	28127
 603.6	28131
 604.2	28222
 604.7	28147
 605.2	28225
 605.8	28155
 606.3	28197
 606.8	28280
 607.4	28289
 607.9	28354
 608.4	28325
 609.0	28388
 609.5	28451
 610.0	28460
 610.6	28579
 611.1	28531
 611.6	28610
 612.2	28639
 612.7	28726
 613.2	28771
 613.8	28752
 614.3	28823
 614.8	28907
 615.4	28909
 615.9	29047
 616.4	29150
 617.0	29150
 617.5	29279
 618.0	29367
 618.6	29370
 619.1	29469
 619.6	29594
 620.2	29681
 620.7	29816
 621.2	29860
 621.8	29942
 622.3	30037
 622.8	30063
 623.4	30143
 623.9	30245
 624.4	30253
 625.0	30287
 625.5	30301
 626.0	30328
 626.6	30393
 627.1	30371
 627.6	30327
 628.2	30298
 628.7	30338
 629.2	30312
 629.8	30321
 630.3	30303
 630.8	30270
 631.4	30217
 631.9	30197
 632.4	30051
 632.9	30026
 633.5	29987
 634.0	29906
 634.5	29917
 635.1	29821
 635.6	29771
 636.1	29705
 636.7	29683
 637.2	29649
 637.7	29508
 638.3	29577
 638.8	29524
 639.3	29509
 639.8	29420
 640.4	29412
 640.9	29403
 641.4	29303
 642.0	29263
 642.5	29259
 643.0	29220
 643.6	29291
 644.1	29241
 644.6	29259
 645.1	29273
 645.7	29271
 646.2	29228
 646.7	29250
 647.3	29281
 647.8	29304
 648.3	29288
 648.9	29338
 649.4	29276
 649.9	29358
 650.4	29387
 651.0	29462
 651.5	29502
 652.0	29572
 652.6	29551
 653.1	29655
 653.6	29609
 654.1	29701
 654.7	29698
 655.2	29811
 655.7	29874
 656.3	29913
 656.8	29904
 657.3	29986
 657.8	29971
 658.4	30006
 658.9	30057
 659.4	30138
 659.9	30160
 660.5	30165
 661.0	30217
 661.5	30275
 662.1	30254
 662.6	30279
 663.1	30254
 663.6	30349
 664.2	30306
 664.7	30285
 665.2	30231
 665.7	30335
 666.3	30303
 666.8	30296
 667.3	30302
 667.8	30264
 668.4	30279
 668.9	30283
 669.4	30247
 669.9	30259
 670.5	30182
 671.0	30194
 671.5	30144
 672.0	30167
 672.6	30157
 673.1	30181
 673.6	30082
 674.1	30095
 674.7	30075
 675.2	30109
 675.7	29970
 676.2	29945
 676.8	29999
 677.3	29993
 677.8	29913
 678.3	29992
 678.9	29923
 679.4	29845
 679.9	29899
 680.4	29885
 681.0	29834
 681.5	29861
 682.0	29807
 682.5	29830
 683.1	29738
 683.6	29755
 684.1	29689
 684.6	29779
 685.1	29720
 685.7	29729
 686.2	29703
 686.7	29659
 687.2	29645
 687.8	29698
 688.3	29647
 688.8	29664
 689.3	29604
 689.8	29637
 690.4	29620
 690.9	29631
 691.4	29654
 691.9	29658
 692.4	29639
 693.0	29706
 693.5	29678
 694.0	29662
 694.5	29653
 695.1	29643
 695.6	29603
 696.1	29677
 696.6	29663
 697.1	29687
 697.7	29710
 698.2	29646
 698.7	29665
 699.2	29629
 699.7	29633
 700.3	29593
 700.8	29567
 701.3	29649
 701.8	29609
 702.3	29543
 702.8	29547
 703.4	29529
 703.9	29502
 704.4	29467
 704.9	29428
 705.4	29420
 706.0	29471
 706.5	29445
 707.0	29338
 707.5	29309
 708.0	29325
 708.5	29255
 709.1	29305
 709.6	29249
 710.1	29193
 710.6	29160
 711.1	29130
 711.7	29130
 712.2	29105
 712.7	29109
 713.2	29062
 713.7	29058
 714.2	29009
 714.8	29083
 715.3	29017
 715.8	29009
 716.3	29009
 716.8	28941
 717.3	28922
 717.8	29023
 718.4	29032
 718.9	28975
 719.4	29053
 719.9	28970
 720.4	29011
 720.9	29035
 721.4	29022
 722.0	29054
 722.5	29047
 723.0	29047
 723.5	29062
 724.0	29038
 724.5	29027
 725.0	29067
 725.6	29015
 726.1	29071
 726.6	29182
 727.1	29127
 727.6	29161
 728.1	29196
 728.6	29151
 729.1	29153
 729.7	29138
 730.2	29162
 730.7	29186
 731.2	29225
 731.7	29214
 732.2	29226
 732.7	29201
 733.2	29240
 733.8	29211
 734.3	29241
 734.8	29230
 735.3	29262
 735.8	29262
 736.3	29256
 736.8	29308
 737.3	29365
 737.8	29322
 738.4	29325
 738.9	29285
 739.4	29379
 739.9	29362
 740.4	29393
 740.9	29366
 741.4	29375
 741.9	29369
 742.4	29383
 742.9	29367
 743.4	29430
 744.0	29338
 744.5	29327
 745.0	29323
 745.5	29383
 746.0	29347
 746.5	29348
 747.0	29270
 747.5	29251
 748.0	29215
 748.5	29219
 749.0	29210
 749.5	29277
 750.0	29110
 750.5	29131
 751.1	29117
 751.6	29095
 752.1	29058
 752.6	29011
 753.1	29016
 753.6	28933
 754.1	28881
 754.6	28898
 755.1	28828
 755.6	28813
 756.1	28703
 756.6	28767
 757.1	28710
 757.6	28667
 758.1	28595
 758.6	28567
 759.1	28470
 759.6	28483
 760.1	28397
 760.7	28326
 761.2	28367
 761.7	28303
 762.2	28258
 762.7	28266
 763.2	28123
 763.7	28164
 764.2	28065
 764.7	28029
 765.2	28016
 765.7	27954
 766.2	27884
 766.7	27884
 767.2	27791
 767.7	27762
 768.2	27708
 768.7	27642
 769.2	27597
 769.7	27607
 770.2	27551
 770.7	27531
 771.2	27477
 771.7	27431
 772.2	27418
 772.7	27445
 773.2	27397
 773.7	27328
 774.2	27267
 774.7	27283
 775.2	27244
 775.7	27213
 776.2	27185
 776.7	27191
 777.2	27101
 777.7	27160
 778.2	27123
 778.7	27156
 779.2	27146
 779.7	27157
 780.2	26998
 780.7	27048
 781.2	27037
 781.7	27083
 782.2	27000
 782.6	27067
 783.1	27049
 783.6	27005
 784.1	26960
 784.6	26948
 785.1	26955
 785.6	26943
 786.1	26951
 786.6	26964
 787.1	26902
 787.6	26889
 788.1	26867
 788.6	26847
 789.1	26823
 789.6	26830
 790.1	26833
 790.6	26818
 791.1	26714
 791.6	26694
 792.0	26683
 792.5	26693
 793.0	26657
 793.5	26623
 794.0	26544
 794.5	26607
 795.0	26550
 795.5	26511
 796.0	26488
 796.5	26409
 797.0	26403
 797.5	26410
 798.0	26233
 798.4	26229
 798.9	26188
 799.4	26159
 799.9	26123
 800.4	25961
 800.9	26020
 801.4	26031
 801.9	25949
 802.4	25839
 802.9	25856
 803.3	25807
 803.8	25737
 804.3	25648
 804.8	25662
 805.3	25581
 805.8	25514
 806.3	25466
 806.8	25415
 807.2	25361
 807.7	25287
 808.2	25273
 808.7	25160
 809.2	25130
 809.7	25021
 810.2	25042
 810.7	24950
 811.1	24915
 811.6	24877
 812.1	24796
 812.6	24719
 813.1	24733
 813.6	24717
 814.1	24670
 814.5	24591
 815.0	24581
 815.5	24499
 816.0	24429
 816.5	24459
 817.0	24379
 817.4	24334
 817.9	24338
 818.4	24237
 818.9	24295
 819.4	24223
 819.9	24171
 820.3	24124
 820.8	24092
 821.3	24077
 821.8	24065
 822.3	23979
 822.7	23939
 823.2	23977
 823.7	23915
 824.2	23894
 824.7	23854
 825.2	23843
 825.6	23804
 826.1	23783
 826.6	23815
 827.1	23774
 827.6	23757
 828.0	23681
 828.5	23639
 829.0	23655
 829.5	23585
 829.9	23581
 830.4	23621
 830.9	23579
 831.4	23593
 831.9	23536
 832.3	23599
 832.8	23526
 833.3	23515
 833.8	23583
 834.2	23557
 834.7	23399
 835.2	23480
 835.7	23463
 836.1	23449
 836.6	23423
 837.1	23411
 837.6	23409
 838.0	23430
 838.5	23441
 839.0	23436
 839.5	23413
 839.9	23330
 840.4	23326
 840.9	23277
 841.4	23307
 841.8	23322
 842.3	23323
 842.8	23332
 843.3	23319
 843.7	23206
 844.2	23184
 844.7	23250
 845.1	23218
 845.6	23129
 846.1	23145
 846.6	23164
 847.0	23059
 847.5	23096
 848.0	23067
 848.4	23087
 848.9	23031
 849.4	22995
 849.8	22999
 850.3	22991
 850.8	23019
 851.3	22970
 851.7	22947
 852.2	22936
 852.7	22911
 853.1	22871
 853.6	22809
 854.1	22833
 854.5	22779
 855.0	22751
 855.5	22726
 855.9	22771
 856.4	22730
 856.9	22639
 857.3	22667
 857.8	22610
 858.3	22620
 858.7	22559
 859.2	22564
 859.7	22553
 860.1	22599
 860.6	22557
 861.1	22473
 861.5	22503
 862.0	22497
 862.4	22450
 862.9	22393
 863.4	22411
 863.8	22401
 864.3	22375
 864.8	22282
 865.2	22314
 865.7	22313
 866.1	22311
 866.6	22216
 867.1	22282
 867.5	22253
 868.0	22211
 868.5	22144
 868.9	22131
 869.4	22216
 869.8	22154
 870.3	22097
 870.8	22151
 871.2	22087
 871.7	22060
 872.1	21991
 872.6	22018
 873.0	21976
 873.5	22034
 874.0	22012
 874.4	21903
 874.9	21951
 875.3	21950
 875.8	21929
 876.2	21833
 876.7	21827
 877.2	21610
 877.6	21199
 878.1	20559
