#xlabel Wavelength (nm)
#ylabel Spectrometer Array Counts
#title Exposure time is 10000 ms
## lambda	counts
 349.8	16978
 350.3	17218
 350.8	17450
 351.3	17624
 351.9	17719
 352.4	17838
 352.9	17916
 353.4	17893
 354.0	17905
 354.5	17958
 355.0	17970
 355.5	17993
 356.0	17961
 356.6	17935
 357.1	17982
 357.6	17969
 358.1	18001
 358.7	17947
 359.2	17964
 359.7	17984
 360.2	18022
 360.8	17995
 361.3	18091
 361.8	18038
 362.3	18074
 362.9	18034
 363.4	18111
 363.9	18118
 364.4	18143
 364.9	18060
 365.5	18138
 366.0	18121
 366.5	18078
 367.0	18127
 367.6	18155
 368.1	18160
 368.6	18100
 369.1	18158
 369.7	18211
 370.2	18138
 370.7	18146
 371.2	18195
 371.8	18249
 372.3	18174
 372.8	18258
 373.3	18269
 373.9	18223
 374.4	18245
 374.9	18292
 375.5	18200
 376.0	18324
 376.5	18299
 377.0	18331
 377.6	18281
 378.1	18365
 378.6	18308
 379.1	18319
 379.7	18314
 380.2	18388
 380.7	18397
 381.2	18363
 381.8	18362
 382.3	18408
 382.8	18393
 383.4	18439
 383.9	18405
 384.4	18546
 384.9	18466
 385.5	18493
 386.0	18489
 386.5	18575
 387.1	18505
 387.6	18527
 388.1	18538
 388.6	18558
 389.2	18553
 389.7	18586
 390.2	18576
 390.8	18667
 391.3	18650
 391.8	18663
 392.3	18657
 392.9	18672
 393.4	18681
 393.9	18767
 394.5	18776
 395.0	18739
 395.5	18772
 396.0	18781
 396.6	18759
 397.1	18867
 397.6	18864
 398.2	18870
 398.7	18875
 399.2	18972
 399.8	18851
 400.3	18909
 400.8	18963
 401.3	18947
 401.9	18967
 402.4	18987
 402.9	18979
 403.5	19021
 404.0	19014
 404.5	18983
 405.1	19006
 405.6	19108
 406.1	19096
 406.7	19115
 407.2	19140
 407.7	19235
 408.2	19239
 408.8	19258
 409.3	19301
 409.8	19362
 410.4	19344
 410.9	19364
 411.4	19323
 412.0	19397
 412.5	19458
 413.0	19418
 413.6	19472
 414.1	19448
 414.6	19491
 415.2	19535
 415.7	19489
 416.2	19549
 416.8	19546
 417.3	19549
 417.8	19578
 418.4	19677
 418.9	19626
 419.4	19768
 420.0	19662
 420.5	19740
 421.0	19693
 421.5	19784
 422.1	19770
 422.6	19835
 423.1	19869
 423.7	19847
 424.2	19841
 424.7	19891
 425.3	19867
 425.8	19903
 426.3	19899
 426.9	19959
 427.4	19913
 427.9	20027
 428.5	19980
 429.0	20036
 429.6	20015
 430.1	20114
 430.6	20133
 431.2	20099
 431.7	20216
 432.2	20216
 432.8	20219
 433.3	20352
 433.8	20380
 434.4	20377
 434.9	20419
 435.4	20493
 436.0	20501
 436.5	20517
 437.0	20606
 437.6	20597
 438.1	20658
 438.6	20671
 439.2	20706
 439.7	20700
 440.2	20652
 440.8	20690
 441.3	20693
 441.8	20695
 442.4	20662
 442.9	20691
 443.5	20723
 444.0	20720
 444.5	20744
 445.1	20671
 445.6	20707
 446.1	20752
 446.7	20783
 447.2	20809
 447.7	20823
 448.3	20911
 448.8	20905
 449.3	20963
 449.9	20949
 450.4	21079
 450.9	21151
 451.5	21195
 452.0	21203
 452.6	21261
 453.1	21359
 453.6	21407
 454.2	21342
 454.7	21447
 455.2	21499
 455.8	21575
 456.3	21543
 456.8	21684
 457.4	21632
 457.9	21660
 458.5	21719
 459.0	21687
 459.5	21728
 460.1	21686
 460.6	21736
 461.1	21721
 461.7	21768
 462.2	21723
 462.7	21757
 463.3	21702
 463.8	21766
 464.4	21834
 464.9	21780
 465.4	21858
 466.0	21787
 466.5	21865
 467.0	21819
 467.6	21904
 468.1	22002
 468.7	21962
 469.2	21926
 469.7	22045
 470.3	22047
 470.8	22116
 471.3	22117
 471.9	22117
 472.4	22191
 473.0	22254
 473.5	22303
 474.0	22320
 474.6	22350
 475.1	22371
 475.6	22463
 476.2	22498
 476.7	22497
 477.3	22571
 477.8	22537
 478.3	22488
 478.9	22696
 479.4	22621
 479.9	22654
 480.5	22660
 481.0	22714
 481.6	22759
 482.1	22840
 482.6	22854
 483.2	22888
 483.7	23020
 484.2	22988
 484.8	22877
 485.3	22986
 485.9	23070
 486.4	23071
 486.9	23113
 487.5	23095
 488.0	23128
 488.6	23204
 489.1	23237
 489.6	23306
 490.2	23318
 490.7	23296
 491.2	23276
 491.8	23341
 492.3	23303
 492.9	23365
 493.4	23378
 493.9	23396
 494.5	23399
 495.0	23445
 495.6	23369
 496.1	23377
 496.6	23426
 497.2	23348
 497.7	23311
 498.2	23387
 498.8	23402
 499.3	23324
 499.9	23378
 500.4	23377
 500.9	23374
 501.5	23382
 502.0	23478
 502.6	23482
 503.1	23593
 503.6	23589
 504.2	23582
 504.7	23630
 505.2	23737
 505.8	23766
 506.3	23896
 506.9	23967
 507.4	23987
 507.9	24029
 508.5	24116
 509.0	24223
 509.6	24341
 510.1	24364
 510.6	24453
 511.2	24530
 511.7	24567
 512.2	24675
 512.8	24745
 513.3	24760
 513.9	24778
 514.4	24863
 514.9	24966
 515.5	24879
 516.0	24957
 516.6	24922
 517.1	24973
 517.6	24935
 518.2	24903
 518.7	24819
 519.3	24854
 519.8	24859
 520.3	24825
 520.9	24762
 521.4	24743
 521.9	24763
 522.5	24661
 523.0	24648
 523.6	24663
 524.1	24511
 524.6	24547
 525.2	24566
 525.7	24606
 526.3	24544
 526.8	24643
 527.3	24603
 527.9	24649
 528.4	24654
 528.9	24734
 529.5	24771
 530.0	24804
 530.6	24881
 531.1	24937
 531.6	24902
 532.2	25071
 532.7	25080
 533.3	25178
 533.8	25345
 534.3	25439
 534.9	25491
 535.4	25510
 536.0	25637
 536.5	25730
 537.0	25759
 537.6	25836
 538.1	25935
 538.6	26007
 539.2	25997
 539.7	26058
 540.3	26175
 540.8	26184
 541.3	26171
 541.9	26230
 542.4	26247
 543.0	26321
 543.5	26293
 544.0	26282
 544.6	26316
 545.1	26338
 545.6	26360
 546.2	26338
 546.7	26244
 547.3	26305
 547.8	26275
 548.3	26315
 548.9	26213
 549.4	26205
 550.0	26171
 550.5	26218
 551.0	26251
 551.6	26192
 552.1	26203
 552.6	26201
 553.2	26158
 553.7	26135
 554.3	26167
 554.8	26234
 555.3	26106
 555.9	26171
 556.4	26157
 556.9	26271
 557.5	26307
 558.0	26277
 558.6	26281
 559.1	26357
 559.6	26366
 560.2	26403
 560.7	26421
 561.3	26411
 561.8	26417
 562.3	26550
 562.9	26555
 563.4	26613
 563.9	26621
 564.5	26650
 565.0	26652
 565.6	26689
 566.1	26694
 566.6	26706
 567.2	26710
 567.7	26805
 568.2	26747
 568.8	26761
 569.3	26747
 569.9	26813
 570.4	26792
 570.9	26781
 571.5	26781
 572.0	26788
 572.5	26847
 573.1	26808
 573.6	26877
 574.1	26874
 574.7	26889
 575.2	26882
 575.8	26942
 576.3	27033
 576.8	27021
 577.4	27061
 577.9	27094
 578.4	27087
 579.0	27131
 579.5	27254
 580.1	27208
 580.6	27255
 581.1	27362
 581.7	27412
 582.2	27383
 582.7	27445
 583.3	27509
 583.8	27501
 584.3	27489
 584.9	27559
 585.4	27585
 586.0	27585
 586.5	27634
 587.0	27630
 587.6	27719
 588.1	27679
 588.6	27758
 589.2	27717
 589.7	27743
 590.2	27746
 590.8	27730
 591.3	27756
 591.9	27701
 592.4	27743
 592.9	27672
 593.5	27641
 594.0	27614
 594.5	27614
 595.1	27558
 595.6	27513
 596.1	27549
 596.7	27482
 597.2	27494
 597.7	27413
 598.3	27403
 598.8	27357
 599.3	27338
 599.9	27280
 600.4	27259
 601.0	27244
 601.5	27217
 602.0	27193
 602.6	27142
 603.1	27154
 603.6	27157
 604.2	27245
 604.7	27167
 605.2	27242
 605.8	27173
 606.3	27206
 606.8	27287
 607.4	27292
 607.9	27343
 608.4	27319
 609.0	27376
 609.5	27441
 610.0	27448
 610.6	27559
 611.1	27515
 611.6	27582
 612.2	27613
 612.7	27700
 613.2	27732
 613.8	27710
 614.3	27782
 614.8	27855
 615.4	27849
 615.9	27986
 616.4	28093
 617.0	28086
 617.5	28208
 618.0	28284
 618.6	28290
 619.1	28373
 619.6	28501
 620.2	28573
 620.7	28700
 621.2	28730
 621.8	28815
 622.3	28901
 622.8	28929
 623.4	29000
 623.9	29096
 624.4	29106
 625.0	29130
 625.5	29144
 626.0	29172
 626.6	29231
 627.1	29213
 627.6	29169
 628.2	29139
 628.7	29177
 629.2	29161
 629.8	29168
 630.3	29147
 630.8	29106
 631.4	29061
 631.9	29039
 632.4	28903
 632.9	28880
 633.5	28836
 634.0	28762
 634.5	28775
 635.1	28680
 635.6	28636
 636.1	28571
 636.7	28556
 637.2	28519
 637.7	28383
 638.3	28447
 638.8	28393
 639.3	28387
 639.8	28296
 640.4	28292
 640.9	28279
 641.4	28184
 642.0	28138
 642.5	28140
 643.0	28103
 643.6	28171
 644.1	28123
 644.6	28133
 645.1	28144
 645.7	28138
 646.2	28101
 646.7	28124
 647.3	28151
 647.8	28173
 648.3	28156
 648.9	28210
 649.4	28137
 649.9	28223
 650.4	28246
 651.0	28320
 651.5	28350
 652.0	28417
 652.6	28396
 653.1	28500
 653.6	28443
 654.1	28533
 654.7	28528
 655.2	28636
 655.7	28697
 656.3	28735
 656.8	28713
 657.3	28794
 657.8	28776
 658.4	28807
 658.9	28845
 659.4	28935
 659.9	28955
 660.5	28944
 661.0	29005
 661.5	29061
 662.1	29043
 662.6	29062
 663.1	29034
 663.6	29126
 664.2	29081
 664.7	29057
 665.2	29006
 665.7	29111
 666.3	29075
 666.8	29073
 667.3	29070
 667.8	29035
 668.4	29048
 668.9	29048
 669.4	29013
 669.9	29035
 670.5	28954
 671.0	28965
 671.5	28907
 672.0	28937
 672.6	28927
 673.1	28946
 673.6	28845
 674.1	28863
 674.7	28838
 675.2	28868
 675.7	28727
 676.2	28707
 676.8	28759
 677.3	28748
 677.8	28663
 678.3	28748
 678.9	28678
 679.4	28595
 679.9	28648
 680.4	28632
 681.0	28587
 681.5	28607
 682.0	28554
 682.5	28581
 683.1	28483
 683.6	28498
 684.1	28444
 684.6	28531
 685.1	28472
 685.7	28476
 686.2	28454
 686.7	28418
 687.2	28404
 687.8	28456
 688.3	28399
 688.8	28418
 689.3	28366
 689.8	28392
 690.4	28376
 690.9	28396
 691.4	28413
 691.9	28420
 692.4	28392
 693.0	28460
 693.5	28423
 694.0	28412
 694.5	28407
 695.1	28387
 695.6	28358
 696.1	28425
 696.6	28407
 697.1	28425
 697.7	28451
 698.2	28386
 698.7	28408
 699.2	28369
 699.7	28375
 700.3	28337
 700.8	28313
 701.3	28396
 701.8	28349
 702.3	28291
 702.8	28283
 703.4	28270
 703.9	28246
 704.4	28211
 704.9	28171
 705.4	28162
 706.0	28214
 706.5	28183
 707.0	28083
 707.5	28055
 708.0	28064
 708.5	27991
 709.1	28031
 709.6	27973
 710.1	27912
 710.6	27872
 711.1	27833
 711.7	27831
 712.2	27789
 712.7	27766
 713.2	27714
 713.7	27692
 714.2	27609
 714.8	27661
 715.3	27570
 715.8	27535
 716.3	27511
 716.8	27411
 717.3	27373
 717.8	27444
 718.4	27436
 718.9	27359
 719.4	27430
 719.9	27333
 720.4	27373
 720.9	27389
 721.4	27381
 722.0	27409
 722.5	27413
 723.0	27414
 723.5	27438
 724.0	27425
 724.5	27429
 725.0	27476
 725.6	27429
 726.1	27501
 726.6	27618
 727.1	27578
 727.6	27632
 728.1	27674
 728.6	27641
 729.1	27653
 729.7	27652
 730.2	27690
 730.7	27722
 731.2	27771
 731.7	27763
 732.2	27791
 732.7	27772
 733.2	27816
 733.8	27800
 734.3	27834
 734.8	27834
 735.3	27872
 735.8	27871
 736.3	27867
 736.8	27923
 737.3	27987
 737.8	27946
 738.4	27958
 738.9	27924
 739.4	28012
 739.9	28008
 740.4	28035
 740.9	28017
 741.4	28019
 741.9	28017
 742.4	28043
 742.9	28022
 743.4	28092
 744.0	28010
 744.5	27999
 745.0	28003
 745.5	28063
 746.0	28029
 746.5	28045
 747.0	27975
 747.5	27956
 748.0	27919
 748.5	27931
 749.0	27930
 749.5	27989
 750.0	27826
 750.5	27862
 751.1	27851
 751.6	27833
 752.1	27795
 752.6	27750
 753.1	27772
 753.6	27698
 754.1	27644
 754.6	27662
 755.1	27598
 755.6	27580
 756.1	27475
 756.6	27534
 757.1	27490
 757.6	27445
 758.1	27384
 758.6	27366
 759.1	27270
 759.6	27276
 760.1	27197
 760.7	27134
 761.2	27189
 761.7	27120
 762.2	27072
 762.7	27081
 763.2	26940
 763.7	26991
 764.2	26897
 764.7	26870
 765.2	26862
 765.7	26802
 766.2	26734
 766.7	26739
 767.2	26657
 767.7	26630
 768.2	26575
 768.7	26512
 769.2	26476
 769.7	26491
 770.2	26438
 770.7	26411
 771.2	26368
 771.7	26324
 772.2	26310
 772.7	26333
 773.2	26297
 773.7	26224
 774.2	26160
 774.7	26186
 775.2	26149
 775.7	26114
 776.2	26095
 776.7	26111
 777.2	26021
 777.7	26078
 778.2	26042
 778.7	26068
 779.2	26067
 779.7	26078
 780.2	25925
 780.7	25974
 781.2	25970
 781.7	26012
 782.2	25938
 782.6	25990
 783.1	25986
 783.6	25948
 784.1	25903
 784.6	25884
 785.1	25890
 785.6	25877
 786.1	25898
 786.6	25902
 787.1	25839
 787.6	25823
 788.1	25810
 788.6	25790
 789.1	25771
 789.6	25782
 790.1	25783
 790.6	25768
 791.1	25662
 791.6	25647
 792.0	25646
 792.5	25655
 793.0	25617
 793.5	25591
 794.0	25506
 794.5	25573
 795.0	25517
 795.5	25483
 796.0	25465
 796.5	25384
 797.0	25384
 797.5	25393
 798.0	25229
 798.4	25228
 798.9	25183
 799.4	25169
 799.9	25135
 800.4	24979
 800.9	25035
 801.4	25042
 801.9	24972
 802.4	24860
 802.9	24881
 803.3	24836
 803.8	24767
 804.3	24682
 804.8	24695
 805.3	24622
 805.8	24552
 806.3	24512
 806.8	24461
 807.2	24412
 807.7	24349
 808.2	24332
 808.7	24226
 809.2	24200
 809.7	24094
 810.2	24123
 810.7	24031
 811.1	23995
 811.6	23963
 812.1	23881
 812.6	23814
 813.1	23826
 813.6	23809
 814.1	23759
 814.5	23693
 815.0	23679
 815.5	23604
 816.0	23535
 816.5	23565
 817.0	23489
 817.4	23446
 817.9	23457
 818.4	23359
 818.9	23413
 819.4	23349
 819.9	23306
 820.3	23254
 820.8	23228
 821.3	23208
 821.8	23185
 822.3	23114
 822.7	23086
 823.2	23118
 823.7	23058
 824.2	23043
 824.7	22998
 825.2	22996
 825.6	22954
 826.1	22938
 826.6	22972
 827.1	22937
 827.6	22915
 828.0	22846
 828.5	22804
 829.0	22820
 829.5	22757
 829.9	22751
 830.4	22791
 830.9	22753
 831.4	22769
 831.9	22715
 832.3	22767
 832.8	22702
 833.3	22691
 833.8	22760
 834.2	22740
 834.7	22577
 835.2	22661
 835.7	22653
 836.1	22633
 836.6	22611
 837.1	22595
 837.6	22596
 838.0	22616
 838.5	22626
 839.0	22621
 839.5	22606
 839.9	22522
 840.4	22515
 840.9	22482
 841.4	22503
 841.8	22514
 842.3	22513
 842.8	22523
 843.3	22505
 843.7	22403
 844.2	22383
 844.7	22455
 845.1	22419
 845.6	22336
 846.1	22342
 846.6	22370
 847.0	22263
 847.5	22298
 848.0	22266
 848.4	22297
 848.9	22239
 849.4	22208
 849.8	22216
 850.3	22207
 850.8	22227
 851.3	22183
 851.7	22160
 852.2	22148
 852.7	22130
 853.1	22103
 853.6	22035
 854.1	22058
 854.5	22016
 855.0	21982
 855.5	21959
 855.9	22002
 856.4	21971
 856.9	21882
 857.3	21914
 857.8	21861
 858.3	21875
 858.7	21807
 859.2	21813
 859.7	21799
 860.1	21838
 860.6	21798
 861.1	21720
 861.5	21738
 862.0	21715
 862.4	21668
 862.9	21610
 863.4	21631
 863.8	21612
 864.3	21582
 864.8	21492
 865.2	21512
 865.7	21524
 866.1	21509
 866.6	21411
 867.1	21471
 867.5	21442
 868.0	21405
 868.5	21346
 868.9	21327
 869.4	21411
 869.8	21357
 870.3	21300
 870.8	21359
 871.2	21297
 871.7	21283
 872.1	21218
 872.6	21259
 873.0	21216
 873.5	21276
 874.0	21249
 874.4	21125
 874.9	21138
 875.3	21089
 875.8	20984
 876.2	20773
 876.7	20627
 877.2	20299
 877.6	19900
 878.1	19477
