#xlabel Wavelength (nm)
#ylabel Spectrometer Array Counts
#title Exposure time is 10000 ms
## lambda	counts
 349.8	16756
 350.3	16993
 350.8	17219
 351.3	17392
 351.9	17485
 352.4	17599
 352.9	17675
 353.4	17647
 354.0	17654
 354.5	17705
 355.0	17716
 355.5	17730
 356.0	17698
 356.6	17668
 357.1	17708
 357.6	17693
 358.1	17717
 358.7	17656
 359.2	17669
 359.7	17681
 360.2	17712
 360.8	17673
 361.3	17765
 361.8	17702
 362.3	17730
 362.9	17684
 363.4	17761
 363.9	17756
 364.4	17776
 364.9	17693
 365.5	17756
 366.0	17734
 366.5	17692
 367.0	17734
 367.6	17750
 368.1	17749
 368.6	17684
 369.1	17735
 369.7	17780
 370.2	17702
 370.7	17698
 371.2	17732
 371.8	17780
 372.3	17703
 372.8	17769
 373.3	17774
 373.9	17724
 374.4	17731
 374.9	17771
 375.5	17671
 376.0	17785
 376.5	17743
 377.0	17762
 377.6	17700
 378.1	17772
 378.6	17704
 379.1	17696
 379.7	17679
 380.2	17742
 380.7	17740
 381.2	17693
 381.8	17678
 382.3	17711
 382.8	17686
 383.4	17727
 383.9	17681
 384.4	17817
 384.9	17734
 385.5	17747
 386.0	17734
 386.5	17809
 387.1	17737
 387.6	17751
 388.1	17750
 388.6	17756
 389.2	17740
 389.7	17751
 390.2	17726
 390.8	17802
 391.3	17759
 391.8	17751
 392.3	17730
 392.9	17720
 393.4	17706
 393.9	17761
 394.5	17759
 395.0	17702
 395.5	17714
 396.0	17706
 396.6	17668
 397.1	17754
 397.6	17741
 398.2	17737
 398.7	17731
 399.2	17818
 399.8	17695
 400.3	17750
 400.8	17792
 401.3	17763
 401.9	17774
 402.4	17784
 402.9	17762
 403.5	17787
 404.0	17771
 404.5	17717
 405.1	17716
 405.6	17795
 406.1	17759
 406.7	17758
 407.2	17755
 407.7	17825
 408.2	17813
 408.8	17800
 409.3	17823
 409.8	17849
 410.4	17809
 410.9	17804
 411.4	17749
 412.0	17801
 412.5	17842
 413.0	17787
 413.6	17819
 414.1	17773
 414.6	17799
 415.2	17826
 415.7	17759
 416.2	17804
 416.8	17782
 417.3	17756
 417.8	17775
 418.4	17851
 418.9	17779
 419.4	17898
 420.0	17781
 420.5	17834
 421.0	17775
 421.5	17849
 422.1	17826
 422.6	17866
 423.1	17880
 423.7	17850
 424.2	17829
 424.7	17859
 425.3	17826
 425.8	17844
 426.3	17828
 426.9	17875
 427.4	17815
 427.9	17913
 428.5	17851
 429.0	17882
 429.6	17826
 430.1	17887
 430.6	17877
 431.2	17801
 431.7	17883
 432.2	17844
 432.8	17804
 433.3	17894
 433.8	17884
 434.4	17841
 434.9	17846
 435.4	17873
 436.0	17846
 436.5	17828
 437.0	17891
 437.6	17860
 438.1	17906
 438.6	17896
 439.2	17921
 439.7	17905
 440.2	17847
 440.8	17881
 441.3	17874
 441.8	17876
 442.4	17845
 442.9	17867
 443.5	17901
 444.0	17894
 444.5	17910
 445.1	17831
 445.6	17859
 446.1	17876
 446.7	17878
 447.2	17887
 447.7	17873
 448.3	17926
 448.8	17874
 449.3	17895
 449.9	17831
 450.4	17904
 450.9	17921
 451.5	17911
 452.0	17860
 452.6	17871
 453.1	17905
 453.6	17908
 454.2	17780
 454.7	17842
 455.2	17845
 455.8	17878
 456.3	17813
 456.8	17932
 457.4	17843
 457.9	17856
 458.5	17893
 459.0	17845
 459.5	17875
 460.1	17828
 460.6	17875
 461.1	17854
 461.7	17899
 462.2	17852
 462.7	17894
 463.3	17823
 463.8	17889
 464.4	17952
 464.9	17886
 465.4	17944
 466.0	17841
 466.5	17906
 467.0	17831
 467.6	17891
 468.1	17961
 468.7	17887
 469.2	17815
 469.7	17893
 470.3	17860
 470.8	17887
 471.3	17851
 471.9	17806
 472.4	17847
 473.0	17871
 473.5	17878
 474.0	17863
 474.6	17857
 475.1	17837
 475.6	17895
 476.2	17898
 476.7	17868
 477.3	17916
 477.8	17848
 478.3	17775
 478.9	17961
 479.4	17846
 479.9	17848
 480.5	17823
 481.0	17839
 481.6	17856
 482.1	17896
 482.6	17876
 483.2	17867
 483.7	17968
 484.2	17901
 484.8	17731
 485.3	17822
 485.9	17881
 486.4	17841
 486.9	17846
 487.5	17804
 488.0	17799
 488.6	17843
 489.1	17850
 489.6	17891
 490.2	17880
 490.7	17837
 491.2	17806
 491.8	17845
 492.3	17798
 492.9	17844
 493.4	17850
 493.9	17863
 494.5	17867
 495.0	17929
 495.6	17846
 496.1	17866
 496.6	17918
 497.2	17841
 497.7	17803
 498.2	17895
 498.8	17917
 499.3	17836
 499.9	17886
 500.4	17879
 500.9	17854
 501.5	17842
 502.0	17898
 502.6	17867
 503.1	17941
 503.6	17895
 504.2	17834
 504.7	17828
 505.2	17877
 505.8	17860
 506.3	17914
 506.9	17903
 507.4	17857
 507.9	17824
 508.5	17829
 509.0	17856
 509.6	17896
 510.1	17849
 510.6	17871
 511.2	17876
 511.7	17842
 512.2	17893
 512.8	17901
 513.3	17849
 513.9	17838
 514.4	17880
 514.9	17949
 515.5	17847
 516.0	17908
 516.6	17887
 517.1	17935
 517.6	17916
 518.2	17903
 518.7	17845
 519.3	17895
 519.8	17955
 520.3	17951
 520.9	17910
 521.4	17926
 521.9	17981
 522.5	17908
 523.0	17949
 523.6	17987
 524.1	17842
 524.6	17895
 525.2	17927
 525.7	17951
 526.3	17870
 526.8	17953
 527.3	17898
 527.9	17921
 528.4	17896
 528.9	17938
 529.5	17949
 530.0	17922
 530.6	17953
 531.1	17953
 531.6	17854
 532.2	17959
 532.7	17899
 533.3	17909
 533.8	18016
 534.3	18036
 534.9	18007
 535.4	17938
 536.0	17996
 536.5	18020
 537.0	17968
 537.6	17979
 538.1	18013
 538.6	18017
 539.2	17950
 539.7	17956
 540.3	18043
 540.8	18000
 541.3	17950
 541.9	17972
 542.4	17969
 543.0	18030
 543.5	17986
 544.0	17967
 544.6	18012
 545.1	18015
 545.6	18053
 546.2	18032
 546.7	17950
 547.3	18017
 547.8	17987
 548.3	18046
 548.9	17967
 549.4	17969
 550.0	17943
 550.5	17999
 551.0	18053
 551.6	17995
 552.1	18017
 552.6	18013
 553.2	18001
 553.7	17970
 554.3	18005
 554.8	18069
 555.3	17941
 555.9	17996
 556.4	17954
 556.9	18042
 557.5	18060
 558.0	18009
 558.6	17984
 559.1	18053
 559.6	18026
 560.2	18018
 560.7	18004
 561.3	17976
 561.8	17947
 562.3	18051
 562.9	18025
 563.4	18051
 563.9	18041
 564.5	18036
 565.0	18018
 565.6	18033
 566.1	18028
 566.6	18031
 567.2	18014
 567.7	18111
 568.2	18018
 568.8	18030
 569.3	17995
 569.9	18065
 570.4	18053
 570.9	18022
 571.5	18014
 572.0	18003
 572.5	18058
 573.1	17996
 573.6	18045
 574.1	18031
 574.7	18020
 575.2	17988
 575.8	18018
 576.3	18079
 576.8	18043
 577.4	18047
 577.9	18048
 578.4	17996
 579.0	18007
 579.5	18088
 580.1	18009
 580.6	18001
 581.1	18065
 581.7	18076
 582.2	18002
 582.7	18046
 583.3	18081
 583.8	18034
 584.3	17975
 584.9	18034
 585.4	18035
 586.0	17996
 586.5	18021
 587.0	17977
 587.6	18046
 588.1	17993
 588.6	18053
 589.2	17997
 589.7	18007
 590.2	17996
 590.8	17991
 591.3	18019
 591.9	17971
 592.4	18025
 592.9	17974
 593.5	17969
 594.0	17963
 594.5	17985
 595.1	17978
 595.6	17964
 596.1	18034
 596.7	17997
 597.2	18043
 597.7	17990
 598.3	18001
 598.8	17975
 599.3	17999
 599.9	17985
 600.4	17987
 601.0	17998
 601.5	17986
 602.0	17978
 602.6	17938
 603.1	17953
 603.6	17949
 604.2	18043
 604.7	17953
 605.2	18021
 605.8	17932
 606.3	17948
 606.8	18015
 607.4	17986
 607.9	18009
 608.4	17944
 609.0	17976
 609.5	18013
 610.0	17981
 610.6	18062
 611.1	17972
 611.6	17980
 612.2	17972
 612.7	18028
 613.2	18005
 613.8	17921
 614.3	17944
 614.8	17980
 615.4	17903
 615.9	17963
 616.4	18007
 617.0	17947
 617.5	18022
 618.0	18019
 618.6	17926
 619.1	17937
 619.6	17999
 620.2	17975
 620.7	18007
 621.2	17953
 621.8	17975
 622.3	17983
 622.8	17927
 623.4	17951
 623.9	17999
 624.4	17961
 625.0	17950
 625.5	17957
 626.0	17964
 626.6	17999
 627.1	17997
 627.6	17948
 628.2	17914
 628.7	17947
 629.2	17939
 629.8	17967
 630.3	17992
 630.8	17983
 631.4	17971
 631.9	18003
 632.4	17909
 632.9	17945
 633.5	17952
 634.0	17927
 634.5	18024
 635.1	17959
 635.6	17941
 636.1	17938
 636.7	18010
 637.2	18001
 637.7	17927
 638.3	18031
 638.8	18033
 639.3	18049
 639.8	18018
 640.4	18042
 640.9	18065
 641.4	17987
 642.0	17978
 642.5	18009
 643.0	17984
 643.6	18056
 644.1	18021
 644.6	18034
 645.1	18072
 645.7	18050
 646.2	18018
 646.7	18031
 647.3	18056
 647.8	18049
 648.3	18031
 648.9	18063
 649.4	17972
 649.9	18038
 650.4	18040
 651.0	18066
 651.5	18073
 652.0	18116
 652.6	18047
 653.1	18117
 653.6	18027
 654.1	18098
 654.7	18041
 655.2	18108
 655.7	18136
 656.3	18142
 656.8	18076
 657.3	18118
 657.8	18067
 658.4	18046
 658.9	18038
 659.4	18130
 659.9	18104
 660.5	18079
 661.0	18120
 661.5	18153
 662.1	18105
 662.6	18112
 663.1	18072
 663.6	18146
 664.2	18113
 664.7	18076
 665.2	18006
 665.7	18119
 666.3	18091
 666.8	18103
 667.3	18107
 667.8	18070
 668.4	18109
 668.9	18109
 669.4	18092
 669.9	18136
 670.5	18076
 671.0	18097
 671.5	18054
 672.0	18120
 672.6	18132
 673.1	18153
 673.6	18075
 674.1	18113
 674.7	18106
 675.2	18164
 675.7	18024
 676.2	18047
 676.8	18095
 677.3	18127
 677.8	18052
 678.3	18170
 678.9	18109
 679.4	18067
 679.9	18125
 680.4	18145
 681.0	18107
 681.5	18142
 682.0	18125
 682.5	18151
 683.1	18073
 683.6	18132
 684.1	18077
 684.6	18181
 685.1	18122
 685.7	18147
 686.2	18105
 686.7	18087
 687.2	18079
 687.8	18148
 688.3	18089
 688.8	18119
 689.3	18065
 689.8	18093
 690.4	18091
 690.9	18104
 691.4	18088
 691.9	18124
 692.4	18076
 693.0	18144
 693.5	18119
 694.0	18100
 694.5	18101
 695.1	18076
 695.6	18041
 696.1	18114
 696.6	18090
 697.1	18109
 697.7	18137
 698.2	18073
 698.7	18096
 699.2	18054
 699.7	18064
 700.3	18047
 700.8	18027
 701.3	18146
 701.8	18107
 702.3	18056
 702.8	18064
 703.4	18031
 703.9	18056
 704.4	18065
 704.9	18030
 705.4	18047
 706.0	18147
 706.5	18140
 707.0	18066
 707.5	18055
 708.0	18091
 708.5	18052
 709.1	18124
 709.6	18094
 710.1	18072
 710.6	18056
 711.1	18067
 711.7	18095
 712.2	18106
 712.7	18111
 713.2	18102
 713.7	18107
 714.2	18074
 714.8	18157
 715.3	18110
 715.8	18115
 716.3	18132
 716.8	18045
 717.3	18034
 717.8	18143
 718.4	18150
 718.9	18089
 719.4	18168
 719.9	18083
 720.4	18127
 720.9	18129
 721.4	18125
 722.0	18141
 722.5	18128
 723.0	18117
 723.5	18125
 724.0	18086
 724.5	18082
 725.0	18090
 725.6	18029
 726.1	18069
 726.6	18176
 727.1	18125
 727.6	18153
 728.1	18170
 728.6	18129
 729.1	18113
 729.7	18102
 730.2	18134
 730.7	18169
 731.2	18191
 731.7	18180
 732.2	18183
 732.7	18157
 733.2	18211
 733.8	18188
 734.3	18207
 734.8	18169
 735.3	18191
 735.8	18168
 736.3	18133
 736.8	18159
 737.3	18191
 737.8	18141
 738.4	18138
 738.9	18085
 739.4	18174
 739.9	18156
 740.4	18153
 740.9	18152
 741.4	18141
 741.9	18131
 742.4	18158
 742.9	18143
 743.4	18227
 744.0	18153
 744.5	18151
 745.0	18167
 745.5	18245
 746.0	18224
 746.5	18232
 747.0	18182
 747.5	18176
 748.0	18148
 748.5	18164
 749.0	18189
 749.5	18282
 750.0	18130
 750.5	18189
 751.1	18213
 751.6	18217
 752.1	18213
 752.6	18189
 753.1	18228
 753.6	18170
 754.1	18150
 754.6	18203
 755.1	18173
 755.6	18181
 756.1	18119
 756.6	18223
 757.1	18198
 757.6	18190
 758.1	18164
 758.6	18198
 759.1	18133
 759.6	18177
 760.1	18134
 760.7	18115
 761.2	18197
 761.7	18143
 762.2	18146
 762.7	18207
 763.2	18066
 763.7	18175
 764.2	18118
 764.7	18132
 765.2	18174
 765.7	18159
 766.2	18125
 766.7	18183
 767.2	18148
 767.7	18171
 768.2	18157
 768.7	18137
 769.2	18139
 769.7	18195
 770.2	18169
 770.7	18179
 771.2	18172
 771.7	18144
 772.2	18167
 772.7	18222
 773.2	18206
 773.7	18164
 774.2	18115
 774.7	18179
 775.2	18180
 775.7	18157
 776.2	18161
 776.7	18190
 777.2	18121
 777.7	18196
 778.2	18195
 778.7	18230
 779.2	18248
 779.7	18274
 780.2	18130
 780.7	18196
 781.2	18211
 781.7	18285
 782.2	18210
 782.6	18278
 783.1	18295
 783.6	18264
 784.1	18234
 784.6	18219
 785.1	18237
 785.6	18226
 786.1	18268
 786.6	18283
 787.1	18233
 787.6	18244
 788.1	18239
 788.6	18234
 789.1	18231
 789.6	18276
 790.1	18288
 790.6	18296
 791.1	18209
 791.6	18222
 792.0	18252
 792.5	18290
 793.0	18279
 793.5	18284
 794.0	18222
 794.5	18315
 795.0	18322
 795.5	18298
 796.0	18316
 796.5	18273
 797.0	18305
 797.5	18355
 798.0	18224
 798.4	18279
 798.9	18271
 799.4	18302
 799.9	18317
 800.4	18197
 800.9	18300
 801.4	18375
 801.9	18348
 802.4	18301
 802.9	18375
 803.3	18375
 803.8	18357
 804.3	18311
 804.8	18389
 805.3	18353
 805.8	18356
 806.3	18371
 806.8	18360
 807.2	18367
 807.7	18342
 808.2	18393
 808.7	18317
 809.2	18348
 809.7	18287
 810.2	18358
 810.7	18319
 811.1	18341
 811.6	18355
 812.1	18321
 812.6	18291
 813.1	18346
 813.6	18373
 814.1	18355
 814.5	18330
 815.0	18358
 815.5	18335
 816.0	18294
 816.5	18370
 817.0	18327
 817.4	18321
 817.9	18362
 818.4	18308
 818.9	18393
 819.4	18349
 819.9	18342
 820.3	18324
 820.8	18326
 821.3	18333
 821.8	18345
 822.3	18308
 822.7	18301
 823.2	18363
 823.7	18319
 824.2	18325
 824.7	18314
 825.2	18341
 825.6	18322
 826.1	18325
 826.6	18381
 827.1	18367
 827.6	18365
 828.0	18314
 828.5	18290
 829.0	18329
 829.5	18279
 829.9	18291
 830.4	18351
 830.9	18338
 831.4	18368
 831.9	18335
 832.3	18411
 832.8	18364
 833.3	18356
 833.8	18439
 834.2	18437
 834.7	18286
 835.2	18386
 835.7	18395
 836.1	18388
 836.6	18377
 837.1	18383
 837.6	18387
 838.0	18427
 838.5	18449
 839.0	18452
 839.5	18451
 839.9	18379
 840.4	18383
 840.9	18358
 841.4	18400
 841.8	18423
 842.3	18439
 842.8	18465
 843.3	18460
 843.7	18369
 844.2	18361
 844.7	18454
 845.1	18429
 845.6	18353
 846.1	18376
 846.6	18408
 847.0	18320
 847.5	18372
 848.0	18359
 848.4	18399
 848.9	18372
 849.4	18365
 849.8	18392
 850.3	18384
 850.8	18435
 851.3	18407
 851.7	18401
 852.2	18416
 852.7	18411
 853.1	18391
 853.6	18354
 854.1	18398
 854.5	18373
 855.0	18367
 855.5	18356
 855.9	18425
 856.4	18421
 856.9	18343
 857.3	18402
 857.8	18391
 858.3	18438
 858.7	18394
 859.2	18413
 859.7	18403
 860.1	18458
 860.6	18444
 861.1	18393
 861.5	18435
 862.0	18450
 862.4	18430
 862.9	18399
 863.4	18446
 863.8	18452
 864.3	18451
 864.8	18377
 865.2	18428
 865.7	18468
 866.1	18473
 866.6	18406
 867.1	18483
 867.5	18468
 868.0	18447
 868.5	18415
 868.9	18422
 869.4	18527
 869.8	18485
 870.3	18446
 870.8	18519
 871.2	18465
 871.7	18464
 872.1	18416
 872.6	18474
 873.0	18446
 873.5	18520
 874.0	18514
 874.4	18393
 874.9	18440
 875.3	18404
 875.8	18319
 876.2	18143
 876.7	18025
 877.2	17747
 877.6	17397
 878.1	17058
