#xlabel Wavelength (nm)
#ylabel Spectrometer Array Counts
#title Exposure time is 10000 ms
## lambda	counts
 349.8	16814
 350.3	17082
 350.8	17327
 351.3	17509
 351.9	17602
 352.4	17714
 352.9	17782
 353.4	17742
 354.0	17740
 354.5	17775
 355.0	17773
 355.5	17785
 356.0	17742
 356.6	17715
 357.1	17756
 357.6	17735
 358.1	17758
 358.7	17691
 359.2	17708
 359.7	17722
 360.2	17751
 360.8	17715
 361.3	17803
 361.8	17750
 362.3	17772
 362.9	17726
 363.4	17795
 363.9	17798
 364.4	17819
 364.9	17734
 365.5	17797
 366.0	17779
 366.5	17731
 367.0	17775
 367.6	17791
 368.1	17791
 368.6	17723
 369.1	17775
 369.7	17819
 370.2	17740
 370.7	17736
 371.2	17776
 371.8	17824
 372.3	17742
 372.8	17814
 373.3	17822
 373.9	17764
 374.4	17776
 374.9	17812
 375.5	17714
 376.0	17826
 376.5	17790
 377.0	17809
 377.6	17745
 378.1	17817
 378.6	17748
 379.1	17741
 379.7	17721
 380.2	17791
 380.7	17782
 381.2	17732
 381.8	17721
 382.3	17752
 382.8	17730
 383.4	17766
 383.9	17720
 384.4	17861
 384.9	17776
 385.5	17787
 386.0	17774
 386.5	17847
 387.1	17777
 387.6	17789
 388.1	17794
 388.6	17807
 389.2	17779
 389.7	17797
 390.2	17770
 390.8	17844
 391.3	17807
 391.8	17797
 392.3	17772
 392.9	17766
 393.4	17742
 393.9	17804
 394.5	17804
 395.0	17745
 395.5	17755
 396.0	17748
 396.6	17716
 397.1	17793
 397.6	17787
 398.2	17781
 398.7	17774
 399.2	17861
 399.8	17735
 400.3	17791
 400.8	17838
 401.3	17807
 401.9	17818
 402.4	17828
 402.9	17812
 403.5	17832
 404.0	17814
 404.5	17758
 405.1	17757
 405.6	17842
 406.1	17801
 406.7	17798
 407.2	17800
 407.7	17867
 408.2	17851
 408.8	17844
 409.3	17867
 409.8	17902
 410.4	17852
 410.9	17849
 411.4	17790
 412.0	17839
 412.5	17883
 413.0	17830
 413.6	17860
 414.1	17818
 414.6	17842
 415.2	17872
 415.7	17804
 416.2	17846
 416.8	17824
 417.3	17801
 417.8	17817
 418.4	17892
 418.9	17826
 419.4	17940
 420.0	17825
 420.5	17881
 421.0	17819
 421.5	17889
 422.1	17867
 422.6	17907
 423.1	17927
 423.7	17893
 424.2	17873
 424.7	17906
 425.3	17876
 425.8	17887
 426.3	17864
 426.9	17918
 427.4	17858
 427.9	17953
 428.5	17891
 429.0	17922
 429.6	17869
 430.1	17930
 430.6	17924
 431.2	17850
 431.7	17928
 432.2	17887
 432.8	17850
 433.3	17940
 433.8	17925
 434.4	17886
 434.9	17887
 435.4	17919
 436.0	17889
 436.5	17875
 437.0	17941
 437.6	17910
 438.1	17948
 438.6	17944
 439.2	17966
 439.7	17951
 440.2	17892
 440.8	17923
 441.3	17921
 441.8	17919
 442.4	17885
 442.9	17911
 443.5	17947
 444.0	17932
 444.5	17959
 445.1	17871
 445.6	17902
 446.1	17918
 446.7	17922
 447.2	17935
 447.7	17911
 448.3	17971
 448.8	17912
 449.3	17942
 449.9	17874
 450.4	17948
 450.9	17969
 451.5	17955
 452.0	17906
 452.6	17914
 453.1	17951
 453.6	17950
 454.2	17834
 454.7	17889
 455.2	17889
 455.8	17932
 456.3	17858
 456.8	17978
 457.4	17892
 457.9	17894
 458.5	17940
 459.0	17887
 459.5	17926
 460.1	17870
 460.6	17918
 461.1	17896
 461.7	17945
 462.2	17897
 462.7	17937
 463.3	17869
 463.8	17935
 464.4	17993
 464.9	17932
 465.4	17990
 466.0	17884
 466.5	17955
 467.0	17880
 467.6	17933
 468.1	18009
 468.7	17931
 469.2	17858
 469.7	17936
 470.3	17903
 470.8	17933
 471.3	17897
 471.9	17847
 472.4	17889
 473.0	17919
 473.5	17925
 474.0	17906
 474.6	17900
 475.1	17884
 475.6	17941
 476.2	17946
 476.7	17911
 477.3	17970
 477.8	17899
 478.3	17822
 478.9	17999
 479.4	17887
 479.9	17893
 480.5	17872
 481.0	17885
 481.6	17898
 482.1	17941
 482.6	17918
 483.2	17910
 483.7	18018
 484.2	17937
 484.8	17778
 485.3	17862
 485.9	17929
 486.4	17882
 486.9	17884
 487.5	17844
 488.0	17842
 488.6	17887
 489.1	17887
 489.6	17933
 490.2	17923
 490.7	17876
 491.2	17847
 491.8	17893
 492.3	17839
 492.9	17887
 493.4	17894
 493.9	17906
 494.5	17910
 495.0	17976
 495.6	17891
 496.1	17911
 496.6	17967
 497.2	17887
 497.7	17847
 498.2	17937
 498.8	17965
 499.3	17876
 499.9	17931
 500.4	17917
 500.9	17899
 501.5	17882
 502.0	17943
 502.6	17909
 503.1	17985
 503.6	17938
 504.2	17880
 504.7	17876
 505.2	17923
 505.8	17903
 506.3	17961
 506.9	17953
 507.4	17901
 507.9	17868
 508.5	17874
 509.0	17895
 509.6	17941
 510.1	17893
 510.6	17917
 511.2	17924
 511.7	17886
 512.2	17941
 512.8	17950
 513.3	17898
 513.9	17880
 514.4	17927
 514.9	17991
 515.5	17892
 516.0	17956
 516.6	17938
 517.1	17981
 517.6	17967
 518.2	17946
 518.7	17887
 519.3	17945
 519.8	18002
 520.3	18001
 520.9	17963
 521.4	17974
 521.9	18028
 522.5	17960
 523.0	17993
 523.6	18027
 524.1	17889
 524.6	17941
 525.2	17971
 525.7	18002
 526.3	17915
 526.8	18002
 527.3	17946
 527.9	17964
 528.4	17942
 528.9	17986
 529.5	17997
 530.0	17966
 530.6	17995
 531.1	17999
 531.6	17899
 532.2	18002
 532.7	17939
 533.3	17953
 533.8	18061
 534.3	18077
 534.9	18057
 535.4	17987
 536.0	18044
 536.5	18071
 537.0	18014
 537.6	18027
 538.1	18063
 538.6	18067
 539.2	17999
 539.7	18005
 540.3	18096
 540.8	18046
 541.3	17999
 541.9	18024
 542.4	18016
 543.0	18075
 543.5	18030
 544.0	18013
 544.6	18059
 545.1	18064
 545.6	18102
 546.2	18083
 546.7	17998
 547.3	18061
 547.8	18034
 548.3	18090
 548.9	18014
 549.4	18016
 550.0	17990
 550.5	18044
 551.0	18097
 551.6	18044
 552.1	18064
 552.6	18053
 553.2	18041
 553.7	18018
 554.3	18050
 554.8	18119
 555.3	17986
 555.9	18046
 556.4	18000
 556.9	18087
 557.5	18110
 558.0	18060
 558.6	18030
 559.1	18099
 559.6	18075
 560.2	18070
 560.7	18055
 561.3	18023
 561.8	17999
 562.3	18100
 562.9	18076
 563.4	18102
 563.9	18094
 564.5	18082
 565.0	18066
 565.6	18082
 566.1	18073
 566.6	18075
 567.2	18064
 567.7	18162
 568.2	18065
 568.8	18079
 569.3	18043
 569.9	18118
 570.4	18104
 570.9	18071
 571.5	18063
 572.0	18050
 572.5	18110
 573.1	18046
 573.6	18093
 574.1	18076
 574.7	18068
 575.2	18035
 575.8	18063
 576.3	18120
 576.8	18090
 577.4	18090
 577.9	18102
 578.4	18042
 579.0	18053
 579.5	18137
 580.1	18059
 580.6	18054
 581.1	18114
 581.7	18127
 582.2	18053
 582.7	18091
 583.3	18126
 583.8	18085
 584.3	18026
 584.9	18078
 585.4	18077
 586.0	18044
 586.5	18073
 587.0	18023
 587.6	18091
 588.1	18038
 588.6	18105
 589.2	18045
 589.7	18061
 590.2	18045
 590.8	18046
 591.3	18067
 591.9	18015
 592.4	18078
 592.9	18018
 593.5	18015
 594.0	18015
 594.5	18040
 595.1	18024
 595.6	18013
 596.1	18078
 596.7	18046
 597.2	18090
 597.7	18036
 598.3	18057
 598.8	18023
 599.3	18049
 599.9	18039
 600.4	18035
 601.0	18044
 601.5	18030
 602.0	18027
 602.6	17981
 603.1	18001
 603.6	17997
 604.2	18091
 604.7	17999
 605.2	18063
 605.8	17983
 606.3	17997
 606.8	18065
 607.4	18029
 607.9	18053
 608.4	17995
 609.0	18021
 609.5	18066
 610.0	18027
 610.6	18109
 611.1	18021
 611.6	18033
 612.2	18018
 612.7	18077
 613.2	18053
 613.8	17972
 614.3	17989
 614.8	18031
 615.4	17946
 615.9	18011
 616.4	18054
 617.0	17993
 617.5	18072
 618.0	18065
 618.6	17972
 619.1	17985
 619.6	18047
 620.2	18021
 620.7	18054
 621.2	18002
 621.8	18024
 622.3	18030
 622.8	17976
 623.4	17993
 623.9	18045
 624.4	18011
 625.0	17995
 625.5	18001
 626.0	18010
 626.6	18050
 627.1	18041
 627.6	17997
 628.2	17965
 628.7	17999
 629.2	17985
 629.8	18019
 630.3	18037
 630.8	18024
 631.4	18023
 631.9	18050
 632.4	17953
 632.9	17983
 633.5	17998
 634.0	17970
 634.5	18070
 635.1	18005
 635.6	17986
 636.1	17987
 636.7	18055
 637.2	18053
 637.7	17972
 638.3	18081
 638.8	18082
 639.3	18094
 639.8	18065
 640.4	18091
 640.9	18110
 641.4	18028
 642.0	18028
 642.5	18059
 643.0	18026
 643.6	18108
 644.1	18072
 644.6	18084
 645.1	18120
 645.7	18102
 646.2	18065
 646.7	18075
 647.3	18109
 647.8	18097
 648.3	18077
 648.9	18109
 649.4	18022
 649.9	18090
 650.4	18085
 651.0	18116
 651.5	18122
 652.0	18165
 652.6	18096
 653.1	18169
 653.6	18077
 654.1	18148
 654.7	18089
 655.2	18155
 655.7	18180
 656.3	18184
 656.8	18125
 657.3	18166
 657.8	18116
 658.4	18094
 658.9	18095
 659.4	18174
 659.9	18158
 660.5	18129
 661.0	18166
 661.5	18205
 662.1	18154
 662.6	18158
 663.1	18119
 663.6	18203
 664.2	18161
 664.7	18120
 665.2	18052
 665.7	18167
 666.3	18143
 666.8	18151
 667.3	18154
 667.8	18111
 668.4	18149
 668.9	18163
 669.4	18140
 669.9	18181
 670.5	18123
 671.0	18142
 671.5	18100
 672.0	18165
 672.6	18184
 673.1	18202
 673.6	18121
 674.1	18158
 674.7	18148
 675.2	18213
 675.7	18071
 676.2	18095
 676.8	18143
 677.3	18173
 677.8	18101
 678.3	18220
 678.9	18162
 679.4	18116
 679.9	18177
 680.4	18191
 681.0	18155
 681.5	18197
 682.0	18178
 682.5	18203
 683.1	18121
 683.6	18180
 684.1	18126
 684.6	18226
 685.1	18166
 685.7	18194
 686.2	18157
 686.7	18140
 687.2	18122
 687.8	18200
 688.3	18135
 688.8	18171
 689.3	18116
 689.8	18142
 690.4	18141
 690.9	18150
 691.4	18137
 691.9	18173
 692.4	18126
 693.0	18191
 693.5	18165
 694.0	18143
 694.5	18146
 695.1	18122
 695.6	18091
 696.1	18161
 696.6	18138
 697.1	18154
 697.7	18183
 698.2	18123
 698.7	18141
 699.2	18107
 699.7	18109
 700.3	18095
 700.8	18076
 701.3	18198
 701.8	18155
 702.3	18106
 702.8	18115
 703.4	18084
 703.9	18105
 704.4	18112
 704.9	18076
 705.4	18094
 706.0	18198
 706.5	18190
 707.0	18112
 707.5	18100
 708.0	18138
 708.5	18101
 709.1	18171
 709.6	18143
 710.1	18124
 710.6	18100
 711.1	18116
 711.7	18141
 712.2	18157
 712.7	18159
 713.2	18148
 713.7	18160
 714.2	18121
 714.8	18207
 715.3	18162
 715.8	18163
 716.3	18178
 716.8	18096
 717.3	18082
 717.8	18189
 718.4	18201
 718.9	18139
 719.4	18216
 719.9	18136
 720.4	18170
 720.9	18181
 721.4	18172
 722.0	18189
 722.5	18178
 723.0	18161
 723.5	18175
 724.0	18127
 724.5	18130
 725.0	18134
 725.6	18071
 726.1	18120
 726.6	18227
 727.1	18171
 727.6	18207
 728.1	18217
 728.6	18178
 729.1	18165
 729.7	18147
 730.2	18181
 730.7	18214
 731.2	18237
 731.7	18230
 732.2	18230
 732.7	18205
 733.2	18256
 733.8	18232
 734.3	18251
 734.8	18222
 735.3	18239
 735.8	18217
 736.3	18182
 736.8	18212
 737.3	18241
 737.8	18189
 738.4	18182
 738.9	18136
 739.4	18219
 739.9	18204
 740.4	18202
 740.9	18203
 741.4	18191
 741.9	18187
 742.4	18204
 742.9	18192
 743.4	18279
 744.0	18202
 744.5	18202
 745.0	18215
 745.5	18297
 746.0	18273
 746.5	18279
 747.0	18235
 747.5	18227
 748.0	18195
 748.5	18215
 749.0	18243
 749.5	18325
 750.0	18174
 750.5	18245
 751.1	18262
 751.6	18263
 752.1	18259
 752.6	18242
 753.1	18271
 753.6	18220
 754.1	18197
 754.6	18254
 755.1	18215
 755.6	18234
 756.1	18167
 756.6	18271
 757.1	18247
 757.6	18234
 758.1	18214
 758.6	18247
 759.1	18178
 759.6	18225
 760.1	18182
 760.7	18164
 761.2	18254
 761.7	18196
 762.2	18191
 762.7	18255
 763.2	18113
 763.7	18226
 764.2	18163
 764.7	18176
 765.2	18223
 765.7	18202
 766.2	18175
 766.7	18232
 767.2	18198
 767.7	18214
 768.2	18203
 768.7	18182
 769.2	18190
 769.7	18239
 770.2	18213
 770.7	18226
 771.2	18215
 771.7	18193
 772.2	18214
 772.7	18265
 773.2	18256
 773.7	18209
 774.2	18165
 774.7	18224
 775.2	18223
 775.7	18204
 776.2	18207
 776.7	18233
 777.2	18167
 777.7	18244
 778.2	18238
 778.7	18277
 779.2	18294
 779.7	18323
 780.2	18176
 780.7	18245
 781.2	18255
 781.7	18328
 782.2	18255
 782.6	18328
 783.1	18340
 783.6	18306
 784.1	18278
 784.6	18262
 785.1	18282
 785.6	18269
 786.1	18317
 786.6	18327
 787.1	18280
 787.6	18286
 788.1	18282
 788.6	18276
 789.1	18278
 789.6	18324
 790.1	18338
 790.6	18341
 791.1	18258
 791.6	18263
 792.0	18297
 792.5	18331
 793.0	18321
 793.5	18331
 794.0	18270
 794.5	18362
 795.0	18363
 795.5	18340
 796.0	18367
 796.5	18320
 797.0	18354
 797.5	18400
 798.0	18273
 798.4	18327
 798.9	18320
 799.4	18351
 799.9	18362
 800.4	18246
 800.9	18349
 801.4	18422
 801.9	18394
 802.4	18347
 802.9	18420
 803.3	18425
 803.8	18404
 804.3	18365
 804.8	18429
 805.3	18403
 805.8	18401
 806.3	18413
 806.8	18402
 807.2	18412
 807.7	18393
 808.2	18438
 808.7	18363
 809.2	18389
 809.7	18337
 810.2	18405
 810.7	18361
 811.1	18385
 811.6	18397
 812.1	18363
 812.6	18341
 813.1	18392
 813.6	18415
 814.1	18402
 814.5	18377
 815.0	18401
 815.5	18378
 816.0	18343
 816.5	18407
 817.0	18370
 817.4	18361
 817.9	18407
 818.4	18356
 818.9	18443
 819.4	18395
 819.9	18388
 820.3	18364
 820.8	18375
 821.3	18379
 821.8	18392
 822.3	18357
 822.7	18347
 823.2	18404
 823.7	18365
 824.2	18373
 824.7	18359
 825.2	18384
 825.6	18367
 826.1	18373
 826.6	18426
 827.1	18413
 827.6	18406
 828.0	18356
 828.5	18335
 829.0	18374
 829.5	18321
 829.9	18338
 830.4	18397
 830.9	18378
 831.4	18411
 831.9	18378
 832.3	18456
 832.8	18408
 833.3	18399
 833.8	18494
 834.2	18481
 834.7	18330
 835.2	18428
 835.7	18440
 836.1	18429
 836.6	18419
 837.1	18429
 837.6	18438
 838.0	18474
 838.5	18497
 839.0	18501
 839.5	18499
 839.9	18422
 840.4	18430
 840.9	18402
 841.4	18444
 841.8	18467
 842.3	18487
 842.8	18512
 843.3	18507
 843.7	18415
 844.2	18406
 844.7	18497
 845.1	18477
 845.6	18397
 846.1	18421
 846.6	18455
 847.0	18362
 847.5	18413
 848.0	18401
 848.4	18445
 848.9	18420
 849.4	18405
 849.8	18436
 850.3	18429
 850.8	18478
 851.3	18451
 851.7	18455
 852.2	18462
 852.7	18459
 853.1	18439
 853.6	18403
 854.1	18448
 854.5	18424
 855.0	18411
 855.5	18409
 855.9	18471
 856.4	18468
 856.9	18391
 857.3	18445
 857.8	18431
 858.3	18479
 858.7	18438
 859.2	18449
 859.7	18447
 860.1	18501
 860.6	18491
 861.1	18435
 861.5	18481
 862.0	18501
 862.4	18474
 862.9	18446
 863.4	18486
 863.8	18490
 864.3	18495
 864.8	18420
 865.2	18476
 865.7	18512
 866.1	18519
 866.6	18449
 867.1	18526
 867.5	18512
 868.0	18494
 868.5	18457
 868.9	18470
 869.4	18574
 869.8	18529
 870.3	18485
 870.8	18561
 871.2	18508
 871.7	18507
 872.1	18459
 872.6	18517
 873.0	18504
 873.5	18585
 874.0	18592
 874.4	18501
 874.9	18560
 875.3	18541
 875.8	18477
 876.2	18301
 876.7	18178
 877.2	17871
 877.6	17485
 878.1	17095
