#xlabel Wavelength (nm)
#ylabel Spectrometer Array Counts
#title Exposure time is 10000 ms
## lambda	counts
 349.8	17015
 350.3	17269
 350.8	17513
 351.3	17703
 351.9	17804
 352.4	17927
 352.9	18009
 353.4	17983
 354.0	17994
 354.5	18043
 355.0	18048
 355.5	18063
 356.0	18027
 356.6	17994
 357.1	18039
 357.6	18020
 358.1	18049
 358.7	17986
 359.2	18008
 359.7	18022
 360.2	18060
 360.8	18030
 361.3	18128
 361.8	18077
 362.3	18115
 362.9	18074
 363.4	18149
 363.9	18154
 364.4	18185
 364.9	18101
 365.5	18177
 366.0	18161
 366.5	18118
 367.0	18171
 367.6	18197
 368.1	18201
 368.6	18140
 369.1	18199
 369.7	18243
 370.2	18182
 370.7	18186
 371.2	18231
 371.8	18287
 372.3	18218
 372.8	18295
 373.3	18313
 373.9	18268
 374.4	18290
 374.9	18338
 375.5	18244
 376.0	18362
 376.5	18333
 377.0	18369
 377.6	18315
 378.1	18407
 378.6	18344
 379.1	18355
 379.7	18351
 380.2	18427
 380.7	18438
 381.2	18401
 381.8	18403
 382.3	18445
 382.8	18431
 383.4	18485
 383.9	18437
 384.4	18583
 384.9	18506
 385.5	18525
 386.0	18528
 386.5	18608
 387.1	18539
 387.6	18561
 388.1	18570
 388.6	18597
 389.2	18587
 389.7	18620
 390.2	18609
 390.8	18706
 391.3	18689
 391.8	18698
 392.3	18695
 392.9	18707
 393.4	18715
 393.9	18796
 394.5	18812
 395.0	18770
 395.5	18804
 396.0	18818
 396.6	18792
 397.1	18897
 397.6	18898
 398.2	18904
 398.7	18903
 399.2	19000
 399.8	18878
 400.3	18946
 400.8	18989
 401.3	18972
 401.9	18991
 402.4	19016
 402.9	19012
 403.5	19048
 404.0	19043
 404.5	19012
 405.1	19035
 405.6	19137
 406.1	19121
 406.7	19148
 407.2	19169
 407.7	19257
 408.2	19270
 408.8	19282
 409.3	19330
 409.8	19385
 410.4	19365
 410.9	19389
 411.4	19347
 412.0	19421
 412.5	19481
 413.0	19451
 413.6	19495
 414.1	19472
 414.6	19512
 415.2	19564
 415.7	19517
 416.2	19578
 416.8	19567
 417.3	19567
 417.8	19607
 418.4	19697
 418.9	19650
 419.4	19786
 420.0	19685
 420.5	19763
 421.0	19716
 421.5	19806
 422.1	19794
 422.6	19867
 423.1	19886
 423.7	19875
 424.2	19861
 424.7	19907
 425.3	19890
 425.8	19927
 426.3	19911
 426.9	19983
 427.4	19933
 427.9	20048
 428.5	20006
 429.0	20057
 429.6	20034
 430.1	20125
 430.6	20153
 431.2	20118
 431.7	20235
 432.2	20232
 432.8	20235
 433.3	20372
 433.8	20395
 434.4	20394
 434.9	20438
 435.4	20508
 436.0	20511
 436.5	20524
 437.0	20615
 437.6	20609
 438.1	20672
 438.6	20683
 439.2	20723
 439.7	20713
 440.2	20665
 440.8	20694
 441.3	20703
 441.8	20706
 442.4	20676
 442.9	20701
 443.5	20737
 444.0	20731
 444.5	20759
 445.1	20681
 445.6	20725
 446.1	20766
 446.7	20792
 447.2	20816
 447.7	20831
 448.3	20918
 448.8	20914
 449.3	20969
 449.9	20960
 450.4	21086
 450.9	21161
 451.5	21197
 452.0	21207
 452.6	21268
 453.1	21362
 453.6	21410
 454.2	21343
 454.7	21449
 455.2	21501
 455.8	21577
 456.3	21548
 456.8	21685
 457.4	21639
 457.9	21658
 458.5	21717
 459.0	21679
 459.5	21725
 460.1	21690
 460.6	21736
 461.1	21719
 461.7	21770
 462.2	21722
 462.7	21765
 463.3	21703
 463.8	21770
 464.4	21833
 464.9	21787
 465.4	21860
 466.0	21785
 466.5	21865
 467.0	21821
 467.6	21904
 468.1	22003
 468.7	21963
 469.2	21921
 469.7	22039
 470.3	22047
 470.8	22108
 471.3	22110
 471.9	22107
 472.4	22182
 473.0	22250
 473.5	22294
 474.0	22312
 474.6	22345
 475.1	22369
 475.6	22454
 476.2	22485
 476.7	22483
 477.3	22560
 477.8	22525
 478.3	22474
 478.9	22687
 479.4	22612
 479.9	22637
 480.5	22655
 481.0	22704
 481.6	22748
 482.1	22836
 482.6	22837
 483.2	22874
 483.7	23006
 484.2	22981
 484.8	22855
 485.3	22971
 485.9	23057
 486.4	23058
 486.9	23099
 487.5	23074
 488.0	23110
 488.6	23190
 489.1	23226
 489.6	23287
 490.2	23297
 490.7	23284
 491.2	23268
 491.8	23329
 492.3	23291
 492.9	23351
 493.4	23359
 493.9	23372
 494.5	23375
 495.0	23431
 495.6	23357
 496.1	23362
 496.6	23412
 497.2	23332
 497.7	23290
 498.2	23368
 498.8	23384
 499.3	23308
 499.9	23362
 500.4	23365
 500.9	23354
 501.5	23369
 502.0	23462
 502.6	23467
 503.1	23576
 503.6	23573
 504.2	23568
 504.7	23613
 505.2	23717
 505.8	23752
 506.3	23881
 506.9	23943
 507.4	23972
 507.9	24006
 508.5	24095
 509.0	24191
 509.6	24316
 510.1	24338
 510.6	24429
 511.2	24493
 511.7	24541
 512.2	24647
 512.8	24717
 513.3	24722
 513.9	24752
 514.4	24832
 514.9	24931
 515.5	24844
 516.0	24922
 516.6	24892
 517.1	24934
 517.6	24905
 518.2	24871
 518.7	24793
 519.3	24818
 519.8	24826
 520.3	24794
 520.9	24734
 521.4	24711
 521.9	24737
 522.5	24628
 523.0	24625
 523.6	24639
 524.1	24489
 524.6	24525
 525.2	24543
 525.7	24576
 526.3	24521
 526.8	24613
 527.3	24579
 527.9	24625
 528.4	24632
 528.9	24709
 529.5	24755
 530.0	24776
 530.6	24863
 531.1	24911
 531.6	24879
 532.2	25041
 532.7	25055
 533.3	25144
 533.8	25313
 534.3	25412
 534.9	25463
 535.4	25484
 536.0	25601
 536.5	25699
 537.0	25724
 537.6	25799
 538.1	25900
 538.6	25966
 539.2	25956
 539.7	26022
 540.3	26143
 540.8	26147
 541.3	26132
 541.9	26192
 542.4	26212
 543.0	26282
 543.5	26259
 544.0	26242
 544.6	26276
 545.1	26297
 545.6	26319
 546.2	26299
 546.7	26206
 547.3	26272
 547.8	26233
 548.3	26270
 548.9	26174
 549.4	26170
 550.0	26131
 550.5	26184
 551.0	26209
 551.6	26157
 552.1	26166
 552.6	26163
 553.2	26124
 553.7	26104
 554.3	26131
 554.8	26202
 555.3	26074
 555.9	26138
 556.4	26127
 556.9	26238
 557.5	26266
 558.0	26247
 558.6	26244
 559.1	26321
 559.6	26328
 560.2	26359
 560.7	26381
 561.3	26370
 561.8	26378
 562.3	26511
 562.9	26518
 563.4	26577
 563.9	26587
 564.5	26613
 565.0	26614
 565.6	26647
 566.1	26659
 566.6	26668
 567.2	26667
 567.7	26765
 568.2	26709
 568.8	26718
 569.3	26703
 569.9	26772
 570.4	26752
 570.9	26743
 571.5	26740
 572.0	26751
 572.5	26814
 573.1	26766
 573.6	26833
 574.1	26836
 574.7	26851
 575.2	26842
 575.8	26902
 576.3	26994
 576.8	26985
 577.4	27017
 577.9	27051
 578.4	27043
 579.0	27090
 579.5	27218
 580.1	27164
 580.6	27219
 581.1	27322
 581.7	27359
 582.2	27342
 582.7	27398
 583.3	27463
 583.8	27458
 584.3	27436
 584.9	27518
 585.4	27545
 586.0	27543
 586.5	27587
 587.0	27580
 587.6	27673
 588.1	27640
 588.6	27711
 589.2	27674
 589.7	27700
 590.2	27703
 590.8	27685
 591.3	27708
 591.9	27659
 592.4	27699
 592.9	27621
 593.5	27599
 594.0	27573
 594.5	27571
 595.1	27519
 595.6	27474
 596.1	27504
 596.7	27444
 597.2	27450
 597.7	27380
 598.3	27367
 598.8	27315
 599.3	27300
 599.9	27238
 600.4	27216
 601.0	27202
 601.5	27185
 602.0	27154
 602.6	27107
 603.1	27115
 603.6	27127
 604.2	27208
 604.7	27134
 605.2	27203
 605.8	27130
 606.3	27167
 606.8	27249
 607.4	27252
 607.9	27310
 608.4	27280
 609.0	27340
 609.5	27407
 610.0	27406
 610.6	27521
 611.1	27475
 611.6	27544
 612.2	27576
 612.7	27662
 613.2	27694
 613.8	27663
 614.3	27739
 614.8	27818
 615.4	27810
 615.9	27941
 616.4	28050
 617.0	28043
 617.5	28166
 618.0	28240
 618.6	28244
 619.1	28323
 619.6	28450
 620.2	28524
 620.7	28654
 621.2	28678
 621.8	28765
 622.3	28844
 622.8	28875
 623.4	28945
 623.9	29045
 624.4	29060
 625.0	29078
 625.5	29093
 626.0	29117
 626.6	29181
 627.1	29162
 627.6	29123
 628.2	29085
 628.7	29128
 629.2	29103
 629.8	29113
 630.3	29094
 630.8	29068
 631.4	29005
 631.9	28994
 632.4	28857
 632.9	28831
 633.5	28791
 634.0	28715
 634.5	28737
 635.1	28635
 635.6	28588
 636.1	28527
 636.7	28513
 637.2	28470
 637.7	28337
 638.3	28403
 638.8	28357
 639.3	28343
 639.8	28251
 640.4	28250
 640.9	28244
 641.4	28140
 642.0	28098
 642.5	28097
 643.0	28057
 643.6	28130
 644.1	28079
 644.6	28096
 645.1	28103
 645.7	28105
 646.2	28063
 646.7	28075
 647.3	28110
 647.8	28129
 648.3	28118
 648.9	28165
 649.4	28100
 649.9	28185
 650.4	28210
 651.0	28278
 651.5	28306
 652.0	28379
 652.6	28356
 653.1	28456
 653.6	28403
 654.1	28491
 654.7	28485
 655.2	28589
 655.7	28650
 656.3	28691
 656.8	28673
 657.3	28752
 657.8	28739
 658.4	28764
 658.9	28810
 659.4	28890
 659.9	28909
 660.5	28903
 661.0	28959
 661.5	29015
 662.1	28997
 662.6	29018
 663.1	28993
 663.6	29077
 664.2	29035
 664.7	29015
 665.2	28960
 665.7	29066
 666.3	29029
 666.8	29024
 667.3	29020
 667.8	28987
 668.4	29004
 668.9	29007
 669.4	28969
 669.9	28984
 670.5	28907
 671.0	28919
 671.5	28869
 672.0	28895
 672.6	28887
 673.1	28902
 673.6	28806
 674.1	28818
 674.7	28794
 675.2	28825
 675.7	28690
 676.2	28665
 676.8	28718
 677.3	28707
 677.8	28627
 678.3	28711
 678.9	28635
 679.4	28563
 679.9	28606
 680.4	28596
 681.0	28547
 681.5	28572
 682.0	28520
 682.5	28548
 683.1	28449
 683.6	28466
 684.1	28405
 684.6	28494
 685.1	28445
 685.7	28445
 686.2	28418
 686.7	28382
 687.2	28365
 687.8	28426
 688.3	28364
 688.8	28388
 689.3	28329
 689.8	28360
 690.4	28344
 690.9	28365
 691.4	28371
 691.9	28383
 692.4	28363
 693.0	28426
 693.5	28392
 694.0	28383
 694.5	28378
 695.1	28355
 695.6	28322
 696.1	28388
 696.6	28372
 697.1	28391
 697.7	28418
 698.2	28351
 698.7	28375
 699.2	28335
 699.7	28350
 700.3	28309
 700.8	28278
 701.3	28366
 701.8	28320
 702.3	28260
 702.8	28255
 703.4	28233
 703.9	28211
 704.4	28179
 704.9	28137
 705.4	28131
 706.0	28179
 706.5	28148
 707.0	28060
 707.5	28029
 708.0	28033
 708.5	27963
 709.1	28005
 709.6	27947
 710.1	27885
 710.6	27842
 711.1	27811
 711.7	27800
 712.2	27765
 712.7	27749
 713.2	27684
 713.7	27661
 714.2	27580
 714.8	27634
 715.3	27550
 715.8	27515
 716.3	27487
 716.8	27387
 717.3	27345
 717.8	27420
 718.4	27410
 718.9	27331
 719.4	27402
 719.9	27308
 720.4	27348
 720.9	27362
 721.4	27357
 722.0	27386
 722.5	27390
 723.0	27393
 723.5	27419
 724.0	27402
 724.5	27403
 725.0	27454
 725.6	27403
 726.1	27479
 726.6	27593
 727.1	27555
 727.6	27610
 728.1	27651
 728.6	27620
 729.1	27629
 729.7	27622
 730.2	27668
 730.7	27702
 731.2	27743
 731.7	27745
 732.2	27759
 732.7	27749
 733.2	27793
 733.8	27774
 734.3	27814
 734.8	27806
 735.3	27844
 735.8	27851
 736.3	27844
 736.8	27893
 737.3	27955
 737.8	27918
 738.4	27924
 738.9	27901
 739.4	27995
 739.9	27976
 740.4	28007
 740.9	27989
 741.4	27999
 741.9	27991
 742.4	28015
 742.9	27999
 743.4	28075
 744.0	27983
 744.5	27979
 745.0	27980
 745.5	28044
 746.0	28009
 746.5	28017
 747.0	27950
 747.5	27933
 748.0	27893
 748.5	27915
 749.0	27908
 749.5	27976
 750.0	27803
 750.5	27834
 751.1	27819
 751.6	27809
 752.1	27775
 752.6	27733
 753.1	27749
 753.6	27671
 754.1	27623
 754.6	27638
 755.1	27583
 755.6	27555
 756.1	27462
 756.6	27521
 757.1	27471
 757.6	27423
 758.1	27359
 758.6	27345
 759.1	27252
 759.6	27262
 760.1	27183
 760.7	27117
 761.2	27174
 761.7	27100
 762.2	27055
 762.7	27062
 763.2	26927
 763.7	26979
 764.2	26881
 764.7	26853
 765.2	26847
 765.7	26785
 766.2	26718
 766.7	26722
 767.2	26645
 767.7	26620
 768.2	26566
 768.7	26507
 769.2	26461
 769.7	26477
 770.2	26427
 770.7	26400
 771.2	26356
 771.7	26314
 772.2	26301
 772.7	26329
 773.2	26287
 773.7	26222
 774.2	26157
 774.7	26176
 775.2	26146
 775.7	26113
 776.2	26086
 776.7	26102
 777.2	26018
 777.7	26075
 778.2	26037
 778.7	26065
 779.2	26061
 779.7	26079
 780.2	25917
 780.7	25967
 781.2	25959
 781.7	26009
 782.2	25934
 782.6	25988
 783.1	25985
 783.6	25947
 784.1	25897
 784.6	25882
 785.1	25889
 785.6	25877
 786.1	25891
 786.6	25899
 787.1	25842
 787.6	25824
 788.1	25806
 788.6	25791
 789.1	25767
 789.6	25785
 790.1	25783
 790.6	25766
 791.1	25660
 791.6	25648
 792.0	25648
 792.5	25654
 793.0	25619
 793.5	25591
 794.0	25508
 794.5	25574
 795.0	25520
 795.5	25491
 796.0	25462
 796.5	25390
 797.0	25388
 797.5	25391
 798.0	25222
 798.4	25224
 798.9	25182
 799.4	25164
 799.9	25138
 800.4	24978
 800.9	25035
 801.4	25046
 801.9	24970
 802.4	24863
 802.9	24884
 803.3	24845
 803.8	24773
 804.3	24691
 804.8	24708
 805.3	24628
 805.8	24560
 806.3	24525
 806.8	24470
 807.2	24422
 807.7	24366
 808.2	24343
 808.7	24236
 809.2	24209
 809.7	24105
 810.2	24126
 810.7	24035
 811.1	24009
 811.6	23975
 812.1	23891
 812.6	23828
 813.1	23835
 813.6	23822
 814.1	23773
 814.5	23706
 815.0	23690
 815.5	23617
 816.0	23556
 816.5	23580
 817.0	23503
 817.4	23467
 817.9	23475
 818.4	23374
 818.9	23426
 819.4	23362
 819.9	23325
 820.3	23270
 820.8	23246
 821.3	23231
 821.8	23199
 822.3	23133
 822.7	23098
 823.2	23138
 823.7	23075
 824.2	23062
 824.7	23019
 825.2	23015
 825.6	22970
 826.1	22948
 826.6	22984
 827.1	22955
 827.6	22933
 828.0	22861
 828.5	22822
 829.0	22845
 829.5	22775
 829.9	22766
 830.4	22806
 830.9	22772
 831.4	22787
 831.9	22736
 832.3	22789
 832.8	22724
 833.3	22715
 833.8	22782
 834.2	22758
 834.7	22596
 835.2	22682
 835.7	22676
 836.1	22657
 836.6	22628
 837.1	22616
 837.6	22620
 838.0	22637
 838.5	22649
 839.0	22638
 839.5	22630
 839.9	22542
 840.4	22538
 840.9	22499
 841.4	22523
 841.8	22537
 842.3	22539
 842.8	22547
 843.3	22532
 843.7	22428
 844.2	22407
 844.7	22478
 845.1	22446
 845.6	22355
 846.1	22367
 846.6	22392
 847.0	22287
 847.5	22320
 848.0	22295
 848.4	22321
 848.9	22265
 849.4	22235
 849.8	22241
 850.3	22228
 850.8	22257
 851.3	22206
 851.7	22187
 852.2	22181
 852.7	22159
 853.1	22121
 853.6	22061
 854.1	22090
 854.5	22045
 855.0	22009
 855.5	21994
 855.9	22035
 856.4	21995
 856.9	21908
 857.3	21935
 857.8	21889
 858.3	21898
 858.7	21835
 859.2	21835
 859.7	21829
 860.1	21866
 860.6	21828
 861.1	21746
 861.5	21764
 862.0	21747
 862.4	21695
 862.9	21646
 863.4	21663
 863.8	21638
 864.3	21614
 864.8	21513
 865.2	21540
 865.7	21545
 866.1	21538
 866.6	21439
 867.1	21495
 867.5	21456
 868.0	21426
 868.5	21367
 868.9	21353
 869.4	21438
 869.8	21384
 870.3	21326
 870.8	21393
 871.2	21341
 871.7	21334
 872.1	21270
 872.6	21320
 873.0	21283
 873.5	21351
 874.0	21338
 874.4	21210
 874.9	21235
 875.3	21183
 875.8	21073
 876.2	20860
 876.7	20699
 877.2	20358
 877.6	19933
 878.1	19496
