#xlabel Wavelength (nm)
#ylabel Spectrometer Array Counts
#title Exposure time is 10000 ms
## lambda	counts
 349.8	16820
 350.3	17089
 350.8	17336
 351.3	17514
 351.9	17603
 352.4	17710
 352.9	17767
 353.4	17724
 354.0	17715
 354.5	17748
 355.0	17748
 355.5	17761
 356.0	17718
 356.6	17685
 357.1	17730
 357.6	17713
 358.1	17735
 358.7	17673
 359.2	17691
 359.7	17703
 360.2	17733
 360.8	17698
 361.3	17794
 361.8	17735
 362.3	17763
 362.9	17717
 363.4	17786
 363.9	17787
 364.4	17809
 364.9	17718
 365.5	17783
 366.0	17765
 366.5	17721
 367.0	17759
 367.6	17780
 368.1	17784
 368.6	17713
 369.1	17765
 369.7	17807
 370.2	17731
 370.7	17726
 371.2	17767
 371.8	17812
 372.3	17732
 372.8	17801
 373.3	17810
 373.9	17756
 374.4	17763
 374.9	17805
 375.5	17698
 376.0	17813
 376.5	17770
 377.0	17791
 377.6	17734
 378.1	17801
 378.6	17735
 379.1	17732
 379.7	17706
 380.2	17774
 380.7	17771
 381.2	17719
 381.8	17708
 382.3	17744
 382.8	17721
 383.4	17759
 383.9	17708
 384.4	17849
 384.9	17759
 385.5	17776
 386.0	17768
 386.5	17837
 387.1	17765
 387.6	17775
 388.1	17774
 388.6	17793
 389.2	17767
 389.7	17788
 390.2	17754
 390.8	17832
 391.3	17793
 391.8	17783
 392.3	17758
 392.9	17752
 393.4	17734
 393.9	17793
 394.5	17792
 395.0	17735
 395.5	17743
 396.0	17738
 396.6	17699
 397.1	17790
 397.6	17773
 398.2	17775
 398.7	17770
 399.2	17855
 399.8	17732
 400.3	17785
 400.8	17833
 401.3	17803
 401.9	17815
 402.4	17825
 402.9	17809
 403.5	17834
 404.0	17811
 404.5	17761
 405.1	17759
 405.6	17843
 406.1	17802
 406.7	17806
 407.2	17799
 407.7	17875
 408.2	17862
 408.8	17850
 409.3	17873
 409.8	17909
 410.4	17862
 410.9	17859
 411.4	17803
 412.0	17859
 412.5	17895
 413.0	17843
 413.6	17876
 414.1	17833
 414.6	17858
 415.2	17892
 415.7	17826
 416.2	17866
 416.8	17842
 417.3	17823
 417.8	17834
 418.4	17915
 418.9	17845
 419.4	17966
 420.0	17851
 420.5	17903
 421.0	17846
 421.5	17918
 422.1	17891
 422.6	17938
 423.1	17952
 423.7	17922
 424.2	17905
 424.7	17933
 425.3	17900
 425.8	17924
 426.3	17898
 426.9	17954
 427.4	17889
 427.9	17991
 428.5	17926
 429.0	17962
 429.6	17913
 430.1	17974
 430.6	17963
 431.2	17884
 431.7	17972
 432.2	17929
 432.8	17894
 433.3	17983
 433.8	17974
 434.4	17935
 434.9	17940
 435.4	17971
 436.0	17948
 436.5	17930
 437.0	17995
 437.6	17959
 438.1	18004
 438.6	17994
 439.2	18025
 439.7	18004
 440.2	17954
 440.8	17977
 441.3	17979
 441.8	17980
 442.4	17949
 442.9	17973
 443.5	18005
 444.0	17999
 444.5	18017
 445.1	17934
 445.6	17968
 446.1	17979
 446.7	17988
 447.2	17998
 447.7	17979
 448.3	18036
 448.8	17983
 449.3	18011
 449.9	17944
 450.4	18024
 450.9	18047
 451.5	18024
 452.0	17982
 452.6	17996
 453.1	18030
 453.6	18030
 454.2	17911
 454.7	17970
 455.2	17980
 455.8	18017
 456.3	17951
 456.8	18068
 457.4	17981
 457.9	17994
 458.5	18034
 459.0	17987
 459.5	18019
 460.1	17967
 460.6	18018
 461.1	17992
 461.7	18043
 462.2	17995
 462.7	18034
 463.3	17968
 463.8	18036
 464.4	18096
 464.9	18029
 465.4	18085
 466.0	17989
 466.5	18058
 467.0	17985
 467.6	18044
 468.1	18118
 468.7	18043
 469.2	17969
 469.7	18053
 470.3	18018
 470.8	18047
 471.3	18014
 471.9	17966
 472.4	18007
 473.0	18035
 473.5	18042
 474.0	18031
 474.6	18029
 475.1	18011
 475.6	18070
 476.2	18076
 476.7	18038
 477.3	18097
 477.8	18026
 478.3	17958
 478.9	18141
 479.4	18027
 479.9	18023
 480.5	18008
 481.0	18018
 481.6	18042
 482.1	18081
 482.6	18070
 483.2	18060
 483.7	18167
 484.2	18094
 484.8	17926
 485.3	18019
 485.9	18079
 486.4	18042
 486.9	18042
 487.5	18004
 488.0	17998
 488.6	18045
 489.1	18056
 489.6	18099
 490.2	18085
 490.7	18044
 491.2	18018
 491.8	18057
 492.3	18004
 492.9	18061
 493.4	18064
 493.9	18073
 494.5	18083
 495.0	18142
 495.6	18060
 496.1	18074
 496.6	18136
 497.2	18055
 497.7	18018
 498.2	18104
 498.8	18131
 499.3	18042
 499.9	18099
 500.4	18088
 500.9	18070
 501.5	18056
 502.0	18117
 502.6	18091
 503.1	18164
 503.6	18119
 504.2	18063
 504.7	18054
 505.2	18109
 505.8	18094
 506.3	18144
 506.9	18143
 507.4	18097
 507.9	18063
 508.5	18073
 509.0	18102
 509.6	18143
 510.1	18104
 510.6	18129
 511.2	18135
 511.7	18101
 512.2	18156
 512.8	18164
 513.3	18120
 513.9	18101
 514.4	18150
 514.9	18216
 515.5	18112
 516.0	18183
 516.6	18164
 517.1	18207
 517.6	18194
 518.2	18172
 518.7	18120
 519.3	18170
 519.8	18222
 520.3	18225
 520.9	18184
 521.4	18201
 521.9	18251
 522.5	18181
 523.0	18215
 523.6	18247
 524.1	18105
 524.6	18162
 525.2	18192
 525.7	18220
 526.3	18136
 526.8	18223
 527.3	18166
 527.9	18186
 528.4	18163
 528.9	18212
 529.5	18223
 530.0	18196
 530.6	18228
 531.1	18232
 531.6	18131
 532.2	18246
 532.7	18181
 533.3	18197
 533.8	18304
 534.3	18326
 534.9	18310
 535.4	18240
 536.0	18300
 536.5	18330
 537.0	18276
 537.6	18290
 538.1	18326
 538.6	18337
 539.2	18268
 539.7	18273
 540.3	18364
 540.8	18323
 541.3	18276
 541.9	18301
 542.4	18299
 543.0	18355
 543.5	18314
 544.0	18293
 544.6	18340
 545.1	18345
 545.6	18384
 546.2	18367
 546.7	18280
 547.3	18344
 547.8	18319
 548.3	18375
 548.9	18295
 549.4	18297
 550.0	18271
 550.5	18332
 551.0	18378
 551.6	18324
 552.1	18347
 552.6	18344
 553.2	18329
 553.7	18301
 554.3	18335
 554.8	18399
 555.3	18268
 555.9	18327
 556.4	18287
 556.9	18377
 557.5	18398
 558.0	18344
 558.6	18318
 559.1	18393
 559.6	18363
 560.2	18361
 560.7	18350
 561.3	18321
 561.8	18296
 562.3	18401
 562.9	18374
 563.4	18399
 563.9	18394
 564.5	18386
 565.0	18373
 565.6	18387
 566.1	18377
 566.6	18385
 567.2	18372
 567.7	18467
 568.2	18376
 568.8	18389
 569.3	18357
 569.9	18431
 570.4	18413
 570.9	18383
 571.5	18374
 572.0	18369
 572.5	18424
 573.1	18365
 573.6	18409
 574.1	18397
 574.7	18388
 575.2	18353
 575.8	18387
 576.3	18451
 576.8	18416
 577.4	18424
 577.9	18429
 578.4	18377
 579.0	18389
 579.5	18466
 580.1	18394
 580.6	18387
 581.1	18454
 581.7	18465
 582.2	18391
 582.7	18436
 583.3	18471
 583.8	18428
 584.3	18375
 584.9	18434
 585.4	18429
 586.0	18402
 586.5	18430
 587.0	18379
 587.6	18448
 588.1	18394
 588.6	18466
 589.2	18402
 589.7	18422
 590.2	18408
 590.8	18403
 591.3	18432
 591.9	18377
 592.4	18440
 592.9	18382
 593.5	18376
 594.0	18370
 594.5	18396
 595.1	18385
 595.6	18378
 596.1	18434
 596.7	18398
 597.2	18446
 597.7	18388
 598.3	18401
 598.8	18381
 599.3	18402
 599.9	18385
 600.4	18383
 601.0	18398
 601.5	18378
 602.0	18375
 602.6	18333
 603.1	18346
 603.6	18346
 604.2	18443
 604.7	18350
 605.2	18414
 605.8	18338
 606.3	18348
 606.8	18416
 607.4	18387
 607.9	18415
 608.4	18349
 609.0	18380
 609.5	18427
 610.0	18391
 610.6	18477
 611.1	18387
 611.6	18399
 612.2	18391
 612.7	18447
 613.2	18429
 613.8	18350
 614.3	18373
 614.8	18414
 615.4	18338
 615.9	18399
 616.4	18449
 617.0	18394
 617.5	18471
 618.0	18468
 618.6	18375
 619.1	18387
 619.6	18455
 620.2	18436
 620.7	18477
 621.2	18423
 621.8	18457
 622.3	18457
 622.8	18409
 623.4	18429
 623.9	18483
 624.4	18456
 625.0	18441
 625.5	18446
 626.0	18459
 626.6	18492
 627.1	18490
 627.6	18445
 628.2	18412
 628.7	18442
 629.2	18432
 629.8	18466
 630.3	18486
 630.8	18475
 631.4	18463
 631.9	18492
 632.4	18394
 632.9	18430
 633.5	18434
 634.0	18404
 634.5	18502
 635.1	18437
 635.6	18415
 636.1	18412
 636.7	18480
 637.2	18475
 637.7	18396
 638.3	18503
 638.8	18503
 639.3	18517
 639.8	18483
 640.4	18501
 640.9	18524
 641.4	18444
 642.0	18438
 642.5	18466
 643.0	18442
 643.6	18520
 644.1	18483
 644.6	18498
 645.1	18535
 645.7	18512
 646.2	18481
 646.7	18490
 647.3	18517
 647.8	18509
 648.3	18500
 648.9	18524
 649.4	18439
 649.9	18509
 650.4	18506
 651.0	18541
 651.5	18548
 652.0	18591
 652.6	18530
 653.1	18599
 653.6	18507
 654.1	18583
 654.7	18527
 655.2	18593
 655.7	18623
 656.3	18635
 656.8	18570
 657.3	18609
 657.8	18564
 658.4	18541
 658.9	18545
 659.4	18631
 659.9	18612
 660.5	18585
 661.0	18620
 661.5	18667
 662.1	18615
 662.6	18622
 663.1	18583
 663.6	18661
 664.2	18625
 664.7	18590
 665.2	18518
 665.7	18637
 666.3	18604
 666.8	18618
 667.3	18619
 667.8	18578
 668.4	18620
 668.9	18627
 669.4	18607
 669.9	18650
 670.5	18584
 671.0	18607
 671.5	18564
 672.0	18632
 672.6	18639
 673.1	18661
 673.6	18585
 674.1	18625
 674.7	18614
 675.2	18671
 675.7	18530
 676.2	18549
 676.8	18604
 677.3	18629
 677.8	18556
 678.3	18678
 678.9	18616
 679.4	18570
 679.9	18633
 680.4	18646
 681.0	18611
 681.5	18652
 682.0	18629
 682.5	18659
 683.1	18575
 683.6	18629
 684.1	18579
 684.6	18678
 685.1	18619
 685.7	18647
 686.2	18611
 686.7	18586
 687.2	18578
 687.8	18648
 688.3	18586
 688.8	18621
 689.3	18562
 689.8	18591
 690.4	18591
 690.9	18604
 691.4	18593
 691.9	18631
 692.4	18578
 693.0	18651
 693.5	18623
 694.0	18600
 694.5	18600
 695.1	18575
 695.6	18549
 696.1	18617
 696.6	18601
 697.1	18613
 697.7	18637
 698.2	18577
 698.7	18598
 699.2	18559
 699.7	18570
 700.3	18551
 700.8	18539
 701.3	18651
 701.8	18613
 702.3	18561
 702.8	18572
 703.4	18539
 703.9	18564
 704.4	18568
 704.9	18533
 705.4	18542
 706.0	18647
 706.5	18637
 707.0	18561
 707.5	18553
 708.0	18588
 708.5	18550
 709.1	18617
 709.6	18589
 710.1	18562
 710.6	18543
 711.1	18558
 711.7	18578
 712.2	18593
 712.7	18598
 713.2	18587
 713.7	18591
 714.2	18553
 714.8	18631
 715.3	18587
 715.8	18595
 716.3	18602
 716.8	18517
 717.3	18507
 717.8	18615
 718.4	18625
 718.9	18559
 719.4	18640
 719.9	18553
 720.4	18595
 720.9	18606
 721.4	18597
 722.0	18609
 722.5	18603
 723.0	18590
 723.5	18598
 724.0	18559
 724.5	18554
 725.0	18569
 725.6	18505
 726.1	18553
 726.6	18664
 727.1	18606
 727.6	18641
 728.1	18655
 728.6	18617
 729.1	18605
 729.7	18591
 730.2	18619
 730.7	18655
 731.2	18676
 731.7	18671
 732.2	18673
 732.7	18652
 733.2	18703
 733.8	18678
 734.3	18696
 734.8	18663
 735.3	18681
 735.8	18660
 736.3	18629
 736.8	18658
 737.3	18691
 737.8	18646
 738.4	18635
 738.9	18597
 739.4	18672
 739.9	18662
 740.4	18659
 740.9	18662
 741.4	18655
 741.9	18641
 742.4	18666
 742.9	18654
 743.4	18740
 744.0	18668
 744.5	18663
 745.0	18681
 745.5	18762
 746.0	18735
 746.5	18746
 747.0	18695
 747.5	18689
 748.0	18663
 748.5	18679
 749.0	18704
 749.5	18789
 750.0	18635
 750.5	18701
 751.1	18718
 751.6	18721
 752.1	18719
 752.6	18694
 753.1	18729
 753.6	18676
 754.1	18650
 754.6	18703
 755.1	18670
 755.6	18682
 756.1	18612
 756.6	18723
 757.1	18696
 757.6	18684
 758.1	18658
 758.6	18683
 759.1	18617
 759.6	18661
 760.1	18620
 760.7	18600
 761.2	18681
 761.7	18624
 762.2	18623
 762.7	18680
 763.2	18542
 763.7	18646
 764.2	18588
 764.7	18599
 765.2	18639
 765.7	18621
 766.2	18591
 766.7	18648
 767.2	18607
 767.7	18627
 768.2	18611
 768.7	18591
 769.2	18594
 769.7	18648
 770.2	18619
 770.7	18626
 771.2	18623
 771.7	18594
 772.2	18617
 772.7	18666
 773.2	18649
 773.7	18605
 774.2	18557
 774.7	18617
 775.2	18615
 775.7	18595
 776.2	18599
 776.7	18620
 777.2	18556
 777.7	18630
 778.2	18624
 778.7	18660
 779.2	18680
 779.7	18706
 780.2	18562
 780.7	18626
 781.2	18641
 781.7	18713
 782.2	18637
 782.6	18703
 783.1	18719
 783.6	18691
 784.1	18659
 784.6	18647
 785.1	18662
 785.6	18654
 786.1	18698
 786.6	18707
 787.1	18659
 787.6	18665
 788.1	18661
 788.6	18655
 789.1	18654
 789.6	18699
 790.1	18707
 790.6	18713
 791.1	18630
 791.6	18636
 792.0	18667
 792.5	18699
 793.0	18701
 793.5	18698
 794.0	18634
 794.5	18732
 795.0	18730
 795.5	18700
 796.0	18719
 796.5	18678
 797.0	18710
 797.5	18752
 798.0	18621
 798.4	18676
 798.9	18668
 799.4	18695
 799.9	18700
 800.4	18581
 800.9	18684
 801.4	18761
 801.9	18734
 802.4	18676
 802.9	18749
 803.3	18755
 803.8	18731
 804.3	18678
 804.8	18754
 805.3	18714
 805.8	18712
 806.3	18728
 806.8	18711
 807.2	18719
 807.7	18701
 808.2	18739
 808.7	18660
 809.2	18685
 809.7	18632
 810.2	18698
 810.7	18651
 811.1	18675
 811.6	18685
 812.1	18647
 812.6	18624
 813.1	18671
 813.6	18693
 814.1	18679
 814.5	18649
 815.0	18674
 815.5	18652
 816.0	18613
 816.5	18675
 817.0	18633
 817.4	18626
 817.9	18667
 818.4	18610
 818.9	18695
 819.4	18655
 819.9	18643
 820.3	18615
 820.8	18626
 821.3	18626
 821.8	18638
 822.3	18606
 822.7	18594
 823.2	18649
 823.7	18604
 824.2	18615
 824.7	18602
 825.2	18624
 825.6	18607
 826.1	18606
 826.6	18658
 827.1	18650
 827.6	18649
 828.0	18590
 828.5	18569
 829.0	18601
 829.5	18552
 829.9	18567
 830.4	18624
 830.9	18613
 831.4	18637
 831.9	18602
 832.3	18679
 832.8	18637
 833.3	18625
 833.8	18712
 834.2	18708
 834.7	18548
 835.2	18654
 835.7	18660
 836.1	18649
 836.6	18640
 837.1	18647
 837.6	18654
 838.0	18689
 838.5	18716
 839.0	18717
 839.5	18719
 839.9	18638
 840.4	18645
 840.9	18617
 841.4	18666
 841.8	18679
 842.3	18697
 842.8	18722
 843.3	18718
 843.7	18627
 844.2	18617
 844.7	18707
 845.1	18683
 845.6	18601
 846.1	18629
 846.6	18659
 847.0	18569
 847.5	18621
 848.0	18608
 848.4	18645
 848.9	18619
 849.4	18611
 849.8	18637
 850.3	18630
 850.8	18679
 851.3	18649
 851.7	18648
 852.2	18660
 852.7	18650
 853.1	18627
 853.6	18590
 854.1	18634
 854.5	18609
 855.0	18597
 855.5	18597
 855.9	18660
 856.4	18654
 856.9	18571
 857.3	18628
 857.8	18614
 858.3	18661
 858.7	18614
 859.2	18626
 859.7	18623
 860.1	18673
 860.6	18660
 861.1	18607
 861.5	18657
 862.0	18670
 862.4	18643
 862.9	18610
 863.4	18650
 863.8	18655
 864.3	18654
 864.8	18575
 865.2	18625
 865.7	18663
 866.1	18671
 866.6	18597
 867.1	18675
 867.5	18659
 868.0	18640
 868.5	18599
 868.9	18611
 869.4	18712
 869.8	18669
 870.3	18623
 870.8	18694
 871.2	18637
 871.7	18642
 872.1	18588
 872.6	18644
 873.0	18627
 873.5	18707
 874.0	18717
 874.4	18623
 874.9	18683
 875.3	18675
 875.8	18607
 876.2	18441
 876.7	18320
 877.2	18014
 877.6	17621
 878.1	17228
