#xlabel Wavelength (nm)
#ylabel Spectrometer Array Counts
#title Exposure time is 10000 ms
## lambda	counts
 349.8	16778
 350.3	17026
 350.8	17257
 351.3	17434
 351.9	17533
 352.4	17649
 352.9	17720
 353.4	17695
 354.0	17693
 354.5	17736
 355.0	17742
 355.5	17750
 356.0	17711
 356.6	17678
 357.1	17719
 357.6	17707
 358.1	17728
 358.7	17666
 359.2	17681
 359.7	17695
 360.2	17723
 360.8	17687
 361.3	17781
 361.8	17722
 362.3	17751
 362.9	17706
 363.4	17772
 363.9	17771
 364.4	17793
 364.9	17708
 365.5	17773
 366.0	17753
 366.5	17705
 367.0	17748
 367.6	17766
 368.1	17768
 368.6	17698
 369.1	17748
 369.7	17791
 370.2	17715
 370.7	17712
 371.2	17751
 371.8	17798
 372.3	17723
 372.8	17786
 373.3	17792
 373.9	17739
 374.4	17749
 374.9	17791
 375.5	17683
 376.0	17799
 376.5	17759
 377.0	17779
 377.6	17717
 378.1	17793
 378.6	17722
 379.1	17716
 379.7	17691
 380.2	17757
 380.7	17757
 381.2	17708
 381.8	17695
 382.3	17730
 382.8	17703
 383.4	17747
 383.9	17694
 384.4	17833
 384.9	17749
 385.5	17762
 386.0	17750
 386.5	17826
 387.1	17753
 387.6	17767
 388.1	17768
 388.6	17777
 389.2	17749
 389.7	17776
 390.2	17745
 390.8	17820
 391.3	17780
 391.8	17768
 392.3	17748
 392.9	17740
 393.4	17726
 393.9	17782
 394.5	17774
 395.0	17717
 395.5	17731
 396.0	17728
 396.6	17682
 397.1	17775
 397.6	17762
 398.2	17762
 398.7	17757
 399.2	17841
 399.8	17720
 400.3	17769
 400.8	17816
 401.3	17784
 401.9	17800
 402.4	17810
 402.9	17792
 403.5	17813
 404.0	17797
 404.5	17742
 405.1	17748
 405.6	17829
 406.1	17791
 406.7	17791
 407.2	17790
 407.7	17862
 408.2	17842
 408.8	17836
 409.3	17861
 409.8	17895
 410.4	17850
 410.9	17843
 411.4	17790
 412.0	17840
 412.5	17883
 413.0	17828
 413.6	17865
 414.1	17814
 414.6	17842
 415.2	17878
 415.7	17807
 416.2	17852
 416.8	17831
 417.3	17807
 417.8	17823
 418.4	17900
 418.9	17831
 419.4	17949
 420.0	17835
 420.5	17890
 421.0	17829
 421.5	17904
 422.1	17876
 422.6	17921
 423.1	17938
 423.7	17906
 424.2	17885
 424.7	17921
 425.3	17889
 425.8	17903
 426.3	17886
 426.9	17940
 427.4	17874
 427.9	17973
 428.5	17914
 429.0	17943
 429.6	17891
 430.1	17956
 430.6	17945
 431.2	17865
 431.7	17953
 432.2	17911
 432.8	17877
 433.3	17972
 433.8	17962
 434.4	17918
 434.9	17923
 435.4	17951
 436.0	17925
 436.5	17912
 437.0	17973
 437.6	17942
 438.1	17985
 438.6	17982
 439.2	18007
 439.7	17993
 440.2	17935
 440.8	17960
 441.3	17965
 441.8	17960
 442.4	17929
 442.9	17956
 443.5	17988
 444.0	17980
 444.5	18001
 445.1	17915
 445.6	17952
 446.1	17967
 446.7	17972
 447.2	17981
 447.7	17962
 448.3	18019
 448.8	17969
 449.3	17996
 449.9	17929
 450.4	18007
 450.9	18027
 451.5	18012
 452.0	17968
 452.6	17977
 453.1	18015
 453.6	18017
 454.2	17899
 454.7	17960
 455.2	17962
 455.8	17998
 456.3	17933
 456.8	18053
 457.4	17965
 457.9	17977
 458.5	18018
 459.0	17967
 459.5	18004
 460.1	17951
 460.6	18001
 461.1	17981
 461.7	18023
 462.2	17973
 462.7	18021
 463.3	17949
 463.8	18021
 464.4	18077
 464.9	18018
 465.4	18072
 466.0	17973
 466.5	18038
 467.0	17966
 467.6	18022
 468.1	18097
 468.7	18024
 469.2	17949
 469.7	18030
 470.3	18002
 470.8	18029
 471.3	17995
 471.9	17944
 472.4	17990
 473.0	18023
 473.5	18027
 474.0	18015
 474.6	18008
 475.1	17992
 475.6	18051
 476.2	18059
 476.7	18022
 477.3	18077
 477.8	18011
 478.3	17938
 478.9	18118
 479.4	18006
 479.9	18008
 480.5	17987
 481.0	18007
 481.6	18022
 482.1	18066
 482.6	18041
 483.2	18042
 483.7	18146
 484.2	18070
 484.8	17909
 485.3	17998
 485.9	18061
 486.4	18018
 486.9	18024
 487.5	17984
 488.0	17983
 488.6	18029
 489.1	18034
 489.6	18079
 490.2	18068
 490.7	18022
 491.2	17996
 491.8	18037
 492.3	17990
 492.9	18038
 493.4	18047
 493.9	18050
 494.5	18061
 495.0	18125
 495.6	18040
 496.1	18055
 496.6	18115
 497.2	18034
 497.7	17993
 498.2	18088
 498.8	18111
 499.3	18025
 499.9	18075
 500.4	18075
 500.9	18054
 501.5	18038
 502.0	18098
 502.6	18066
 503.1	18147
 503.6	18095
 504.2	18044
 504.7	18038
 505.2	18086
 505.8	18070
 506.3	18124
 506.9	18123
 507.4	18075
 507.9	18046
 508.5	18053
 509.0	18077
 509.6	18123
 510.1	18082
 510.6	18108
 511.2	18111
 511.7	18082
 512.2	18131
 512.8	18146
 513.3	18101
 513.9	18086
 514.4	18132
 514.9	18198
 515.5	18097
 516.0	18167
 516.6	18141
 517.1	18186
 517.6	18171
 518.2	18149
 518.7	18098
 519.3	18149
 519.8	18206
 520.3	18205
 520.9	18159
 521.4	18176
 521.9	18223
 522.5	18159
 523.0	18192
 523.6	18231
 524.1	18086
 524.6	18141
 525.2	18167
 525.7	18195
 526.3	18112
 526.8	18197
 527.3	18146
 527.9	18168
 528.4	18143
 528.9	18189
 529.5	18201
 530.0	18173
 530.6	18206
 531.1	18206
 531.6	18108
 532.2	18222
 532.7	18160
 533.3	18181
 533.8	18286
 534.3	18305
 534.9	18285
 535.4	18219
 536.0	18274
 536.5	18305
 537.0	18258
 537.6	18269
 538.1	18305
 538.6	18317
 539.2	18248
 539.7	18253
 540.3	18345
 540.8	18299
 541.3	18251
 541.9	18280
 542.4	18280
 543.0	18335
 543.5	18288
 544.0	18271
 544.6	18315
 545.1	18324
 545.6	18361
 546.2	18341
 546.7	18256
 547.3	18323
 547.8	18292
 548.3	18352
 548.9	18273
 549.4	18277
 550.0	18248
 550.5	18309
 551.0	18363
 551.6	18299
 552.1	18325
 552.6	18321
 553.2	18306
 553.7	18274
 554.3	18314
 554.8	18377
 555.3	18249
 555.9	18310
 556.4	18263
 556.9	18356
 557.5	18373
 558.0	18322
 558.6	18297
 559.1	18372
 559.6	18344
 560.2	18340
 560.7	18326
 561.3	18299
 561.8	18273
 562.3	18375
 562.9	18356
 563.4	18378
 563.9	18369
 564.5	18370
 565.0	18348
 565.6	18364
 566.1	18358
 566.6	18366
 567.2	18351
 567.7	18448
 568.2	18354
 568.8	18365
 569.3	18331
 569.9	18406
 570.4	18391
 570.9	18359
 571.5	18357
 572.0	18348
 572.5	18402
 573.1	18339
 573.6	18387
 574.1	18371
 574.7	18366
 575.2	18335
 575.8	18359
 576.3	18422
 576.8	18396
 577.4	18394
 577.9	18404
 578.4	18351
 579.0	18366
 579.5	18446
 580.1	18373
 580.6	18367
 581.1	18430
 581.7	18442
 582.2	18368
 582.7	18417
 583.3	18453
 583.8	18407
 584.3	18349
 584.9	18407
 585.4	18412
 586.0	18375
 586.5	18401
 587.0	18355
 587.6	18427
 588.1	18374
 588.6	18444
 589.2	18380
 589.7	18393
 590.2	18382
 590.8	18377
 591.3	18403
 591.9	18355
 592.4	18417
 592.9	18358
 593.5	18350
 594.0	18350
 594.5	18373
 595.1	18362
 595.6	18349
 596.1	18408
 596.7	18374
 597.2	18419
 597.7	18369
 598.3	18382
 598.8	18356
 599.3	18378
 599.9	18363
 600.4	18364
 601.0	18373
 601.5	18362
 602.0	18349
 602.6	18306
 603.1	18320
 603.6	18321
 604.2	18418
 604.7	18326
 605.2	18391
 605.8	18306
 606.3	18324
 606.8	18395
 607.4	18363
 607.9	18387
 608.4	18323
 609.0	18355
 609.5	18396
 610.0	18368
 610.6	18456
 611.1	18362
 611.6	18371
 612.2	18368
 612.7	18427
 613.2	18404
 613.8	18326
 614.3	18353
 614.8	18389
 615.4	18309
 615.9	18377
 616.4	18425
 617.0	18368
 617.5	18447
 618.0	18443
 618.6	18355
 619.1	18370
 619.6	18430
 620.2	18413
 620.7	18450
 621.2	18399
 621.8	18429
 622.3	18439
 622.8	18384
 623.4	18402
 623.9	18456
 624.4	18423
 625.0	18415
 625.5	18421
 626.0	18427
 626.6	18468
 627.1	18465
 627.6	18419
 628.2	18381
 628.7	18415
 629.2	18403
 629.8	18439
 630.3	18457
 630.8	18446
 631.4	18438
 631.9	18462
 632.4	18369
 632.9	18404
 633.5	18410
 634.0	18378
 634.5	18474
 635.1	18409
 635.6	18392
 636.1	18387
 636.7	18458
 637.2	18451
 637.7	18370
 638.3	18476
 638.8	18483
 639.3	18491
 639.8	18454
 640.4	18480
 640.9	18500
 641.4	18418
 642.0	18413
 642.5	18446
 643.0	18415
 643.6	18494
 644.1	18457
 644.6	18472
 645.1	18510
 645.7	18485
 646.2	18452
 646.7	18471
 647.3	18495
 647.8	18484
 648.3	18469
 648.9	18499
 649.4	18415
 649.9	18486
 650.4	18482
 651.0	18519
 651.5	18524
 652.0	18569
 652.6	18499
 653.1	18573
 653.6	18477
 654.1	18558
 654.7	18501
 655.2	18570
 655.7	18596
 656.3	18607
 656.8	18540
 657.3	18588
 657.8	18538
 658.4	18517
 658.9	18519
 659.4	18604
 659.9	18583
 660.5	18558
 661.0	18599
 661.5	18635
 662.1	18587
 662.6	18597
 663.1	18557
 663.6	18634
 664.2	18595
 664.7	18566
 665.2	18491
 665.7	18609
 666.3	18579
 666.8	18589
 667.3	18594
 667.8	18557
 668.4	18587
 668.9	18597
 669.4	18582
 669.9	18622
 670.5	18561
 671.0	18581
 671.5	18535
 672.0	18605
 672.6	18616
 673.1	18637
 673.6	18553
 674.1	18597
 674.7	18590
 675.2	18641
 675.7	18509
 676.2	18527
 676.8	18580
 677.3	18605
 677.8	18533
 678.3	18650
 678.9	18589
 679.4	18544
 679.9	18604
 680.4	18620
 681.0	18587
 681.5	18622
 682.0	18605
 682.5	18630
 683.1	18544
 683.6	18599
 684.1	18552
 684.6	18656
 685.1	18594
 685.7	18619
 686.2	18583
 686.7	18559
 687.2	18548
 687.8	18626
 688.3	18562
 688.8	18595
 689.3	18542
 689.8	18567
 690.4	18563
 690.9	18574
 691.4	18562
 691.9	18602
 692.4	18550
 693.0	18622
 693.5	18598
 694.0	18575
 694.5	18574
 695.1	18548
 695.6	18519
 696.1	18582
 696.6	18572
 697.1	18587
 697.7	18614
 698.2	18552
 698.7	18575
 699.2	18538
 699.7	18548
 700.3	18527
 700.8	18513
 701.3	18628
 701.8	18587
 702.3	18536
 702.8	18547
 703.4	18511
 703.9	18535
 704.4	18542
 704.9	18505
 705.4	18518
 706.0	18623
 706.5	18611
 707.0	18538
 707.5	18523
 708.0	18559
 708.5	18519
 709.1	18590
 709.6	18556
 710.1	18540
 710.6	18515
 711.1	18527
 711.7	18559
 712.2	18565
 712.7	18570
 713.2	18558
 713.7	18562
 714.2	18525
 714.8	18610
 715.3	18562
 715.8	18566
 716.3	18578
 716.8	18494
 717.3	18479
 717.8	18587
 718.4	18598
 718.9	18536
 719.4	18612
 719.9	18527
 720.4	18571
 720.9	18578
 721.4	18573
 722.0	18580
 722.5	18576
 723.0	18564
 723.5	18572
 724.0	18537
 724.5	18533
 725.0	18543
 725.6	18480
 726.1	18530
 726.6	18636
 727.1	18585
 727.6	18614
 728.1	18633
 728.6	18590
 729.1	18577
 729.7	18564
 730.2	18599
 730.7	18628
 731.2	18652
 731.7	18645
 732.2	18645
 732.7	18624
 733.2	18674
 733.8	18654
 734.3	18669
 734.8	18637
 735.3	18657
 735.8	18637
 736.3	18607
 736.8	18635
 737.3	18664
 737.8	18618
 738.4	18614
 738.9	18566
 739.4	18647
 739.9	18635
 740.4	18633
 740.9	18631
 741.4	18626
 741.9	18619
 742.4	18643
 742.9	18623
 743.4	18711
 744.0	18642
 744.5	18642
 745.0	18655
 745.5	18731
 746.0	18709
 746.5	18725
 747.0	18674
 747.5	18666
 748.0	18633
 748.5	18655
 749.0	18677
 749.5	18768
 750.0	18613
 750.5	18679
 751.1	18697
 751.6	18694
 752.1	18695
 752.6	18673
 753.1	18701
 753.6	18648
 754.1	18622
 754.6	18679
 755.1	18641
 755.6	18654
 756.1	18588
 756.6	18696
 757.1	18664
 757.6	18658
 758.1	18628
 758.6	18659
 759.1	18594
 759.6	18638
 760.1	18596
 760.7	18577
 761.2	18663
 761.7	18600
 762.2	18597
 762.7	18655
 763.2	18522
 763.7	18619
 764.2	18564
 764.7	18577
 765.2	18616
 765.7	18603
 766.2	18567
 766.7	18621
 767.2	18582
 767.7	18606
 768.2	18590
 768.7	18565
 769.2	18570
 769.7	18623
 770.2	18591
 770.7	18602
 771.2	18596
 771.7	18573
 772.2	18591
 772.7	18639
 773.2	18623
 773.7	18585
 774.2	18532
 774.7	18591
 775.2	18593
 775.7	18571
 776.2	18571
 776.7	18599
 777.2	18530
 777.7	18607
 778.2	18599
 778.7	18635
 779.2	18653
 779.7	18686
 780.2	18534
 780.7	18606
 781.2	18616
 781.7	18687
 782.2	18614
 782.6	18685
 783.1	18702
 783.6	18667
 784.1	18635
 784.6	18621
 785.1	18639
 785.6	18629
 786.1	18673
 786.6	18684
 787.1	18637
 787.6	18640
 788.1	18635
 788.6	18633
 789.1	18634
 789.6	18671
 790.1	18684
 790.6	18692
 791.1	18607
 791.6	18615
 792.0	18645
 792.5	18681
 793.0	18671
 793.5	18671
 794.0	18615
 794.5	18707
 795.0	18703
 795.5	18676
 796.0	18700
 796.5	18649
 797.0	18690
 797.5	18734
 798.0	18599
 798.4	18647
 798.9	18645
 799.4	18671
 799.9	18685
 800.4	18563
 800.9	18662
 801.4	18735
 801.9	18708
 802.4	18654
 802.9	18727
 803.3	18729
 803.8	18705
 804.3	18661
 804.8	18727
 805.3	18697
 805.8	18688
 806.3	18701
 806.8	18692
 807.2	18694
 807.7	18677
 808.2	18719
 808.7	18642
 809.2	18665
 809.7	18606
 810.2	18678
 810.7	18633
 811.1	18652
 811.6	18665
 812.1	18630
 812.6	18598
 813.1	18651
 813.6	18672
 814.1	18654
 814.5	18628
 815.0	18653
 815.5	18630
 816.0	18590
 816.5	18657
 817.0	18617
 817.4	18607
 817.9	18648
 818.4	18593
 818.9	18680
 819.4	18628
 819.9	18625
 820.3	18599
 820.8	18602
 821.3	18613
 821.8	18617
 822.3	18581
 822.7	18572
 823.2	18630
 823.7	18589
 824.2	18591
 824.7	18580
 825.2	18601
 825.6	18584
 826.1	18589
 826.6	18638
 827.1	18630
 827.6	18624
 828.0	18569
 828.5	18548
 829.0	18585
 829.5	18538
 829.9	18550
 830.4	18605
 830.9	18590
 831.4	18616
 831.9	18584
 832.3	18661
 832.8	18616
 833.3	18607
 833.8	18687
 834.2	18687
 834.7	18537
 835.2	18635
 835.7	18644
 836.1	18629
 836.6	18620
 837.1	18628
 837.6	18637
 838.0	18675
 838.5	18695
 839.0	18700
 839.5	18697
 839.9	18619
 840.4	18626
 840.9	18600
 841.4	18641
 841.8	18661
 842.3	18679
 842.8	18701
 843.3	18699
 843.7	18607
 844.2	18594
 844.7	18686
 845.1	18660
 845.6	18588
 846.1	18609
 846.6	18643
 847.0	18556
 847.5	18599
 848.0	18590
 848.4	18627
 848.9	18602
 849.4	18591
 849.8	18619
 850.3	18607
 850.8	18661
 851.3	18628
 851.7	18625
 852.2	18637
 852.7	18631
 853.1	18612
 853.6	18573
 854.1	18616
 854.5	18590
 855.0	18579
 855.5	18574
 855.9	18643
 856.4	18635
 856.9	18553
 857.3	18608
 857.8	18591
 858.3	18639
 858.7	18593
 859.2	18607
 859.7	18605
 860.1	18660
 860.6	18639
 861.1	18582
 861.5	18625
 862.0	18647
 862.4	18618
 862.9	18589
 863.4	18636
 863.8	18635
 864.3	18633
 864.8	18560
 865.2	18608
 865.7	18646
 866.1	18653
 866.6	18584
 867.1	18663
 867.5	18639
 868.0	18622
 868.5	18581
 868.9	18594
 869.4	18693
 869.8	18652
 870.3	18610
 870.8	18678
 871.2	18632
 871.7	18628
 872.1	18578
 872.6	18637
 873.0	18619
 873.5	18701
 874.0	18702
 874.4	18593
 874.9	18639
 875.3	18607
 875.8	18526
 876.2	18347
 876.7	18225
 877.2	17926
 877.6	17560
 878.1	17202
