#xlabel Wavelength (nm)
#ylabel Spectrometer Array Counts
#title Exposure time is 10000 ms
## lambda	counts
 349.8	16854
 350.3	17137
 350.8	17392
 351.3	17567
 351.9	17651
 352.4	17750
 352.9	17790
 353.4	17741
 354.0	17731
 354.5	17762
 355.0	17759
 355.5	17766
 356.0	17728
 356.6	17699
 357.1	17740
 357.6	17720
 358.1	17746
 358.7	17685
 359.2	17699
 359.7	17717
 360.2	17743
 360.8	17705
 361.3	17800
 361.8	17751
 362.3	17770
 362.9	17723
 363.4	17798
 363.9	17796
 364.4	17821
 364.9	17729
 365.5	17796
 366.0	17776
 366.5	17729
 367.0	17772
 367.6	17791
 368.1	17788
 368.6	17722
 369.1	17777
 369.7	17813
 370.2	17736
 370.7	17731
 371.2	17773
 371.8	17820
 372.3	17746
 372.8	17807
 373.3	17817
 373.9	17761
 374.4	17772
 374.9	17814
 375.5	17708
 376.0	17825
 376.5	17782
 377.0	17802
 377.6	17742
 378.1	17814
 378.6	17746
 379.1	17738
 379.7	17716
 380.2	17784
 380.7	17777
 381.2	17725
 381.8	17720
 382.3	17750
 382.8	17727
 383.4	17766
 383.9	17720
 384.4	17855
 384.9	17771
 385.5	17788
 386.0	17777
 386.5	17851
 387.1	17776
 387.6	17791
 388.1	17789
 388.6	17802
 389.2	17775
 389.7	17799
 390.2	17769
 390.8	17843
 391.3	17802
 391.8	17796
 392.3	17775
 392.9	17767
 393.4	17748
 393.9	17807
 394.5	17798
 395.0	17743
 395.5	17754
 396.0	17751
 396.6	17712
 397.1	17798
 397.6	17786
 398.2	17783
 398.7	17779
 399.2	17867
 399.8	17738
 400.3	17794
 400.8	17840
 401.3	17814
 401.9	17826
 402.4	17840
 402.9	17816
 403.5	17842
 404.0	17823
 404.5	17772
 405.1	17769
 405.6	17850
 406.1	17811
 406.7	17818
 407.2	17813
 407.7	17887
 408.2	17871
 408.8	17857
 409.3	17884
 409.8	17915
 410.4	17874
 410.9	17868
 411.4	17810
 412.0	17863
 412.5	17911
 413.0	17854
 413.6	17883
 414.1	17844
 414.6	17867
 415.2	17901
 415.7	17834
 416.2	17873
 416.8	17851
 417.3	17830
 417.8	17842
 418.4	17922
 418.9	17859
 419.4	17976
 420.0	17858
 420.5	17918
 421.0	17859
 421.5	17929
 422.1	17905
 422.6	17946
 423.1	17962
 423.7	17932
 424.2	17911
 424.7	17944
 425.3	17911
 425.8	17931
 426.3	17910
 426.9	17965
 427.4	17905
 427.9	17999
 428.5	17939
 429.0	17970
 429.6	17917
 430.1	17982
 430.6	17972
 431.2	17895
 431.7	17981
 432.2	17935
 432.8	17899
 433.3	17991
 433.8	17983
 434.4	17939
 434.9	17949
 435.4	17976
 436.0	17949
 436.5	17938
 437.0	18002
 437.6	17969
 438.1	18015
 438.6	18010
 439.2	18033
 439.7	18015
 440.2	17967
 440.8	17987
 441.3	17991
 441.8	17990
 442.4	17954
 442.9	17984
 443.5	18017
 444.0	18005
 444.5	18029
 445.1	17943
 445.6	17982
 446.1	17995
 446.7	17999
 447.2	18008
 447.7	17992
 448.3	18047
 448.8	17997
 449.3	18018
 449.9	17954
 450.4	18031
 450.9	18059
 451.5	18041
 452.0	17996
 452.6	18004
 453.1	18041
 453.6	18042
 454.2	17925
 454.7	17984
 455.2	17990
 455.8	18031
 456.3	17965
 456.8	18079
 457.4	17990
 457.9	18000
 458.5	18042
 459.0	17994
 459.5	18030
 460.1	17975
 460.6	18023
 461.1	18007
 461.7	18051
 462.2	18006
 462.7	18050
 463.3	17977
 463.8	18046
 464.4	18111
 464.9	18045
 465.4	18104
 466.0	17997
 466.5	18063
 467.0	17994
 467.6	18053
 468.1	18128
 468.7	18051
 469.2	17975
 469.7	18059
 470.3	18023
 470.8	18059
 471.3	18025
 471.9	17972
 472.4	18014
 473.0	18046
 473.5	18052
 474.0	18039
 474.6	18036
 475.1	18024
 475.6	18079
 476.2	18083
 476.7	18050
 477.3	18105
 477.8	18037
 478.3	17967
 478.9	18149
 479.4	18035
 479.9	18033
 480.5	18019
 481.0	18030
 481.6	18051
 482.1	18088
 482.6	18077
 483.2	18068
 483.7	18179
 484.2	18103
 484.8	17941
 485.3	18028
 485.9	18087
 486.4	18047
 486.9	18055
 487.5	18010
 488.0	18013
 488.6	18056
 489.1	18061
 489.6	18109
 490.2	18091
 490.7	18051
 491.2	18021
 491.8	18066
 492.3	18014
 492.9	18065
 493.4	18075
 493.9	18083
 494.5	18088
 495.0	18150
 495.6	18071
 496.1	18084
 496.6	18140
 497.2	18062
 497.7	18024
 498.2	18117
 498.8	18138
 499.3	18052
 499.9	18106
 500.4	18098
 500.9	18079
 501.5	18067
 502.0	18128
 502.6	18102
 503.1	18170
 503.6	18127
 504.2	18070
 504.7	18065
 505.2	18116
 505.8	18102
 506.3	18153
 506.9	18153
 507.4	18107
 507.9	18077
 508.5	18085
 509.0	18111
 509.6	18151
 510.1	18112
 510.6	18134
 511.2	18146
 511.7	18110
 512.2	18166
 512.8	18172
 513.3	18130
 513.9	18113
 514.4	18158
 514.9	18227
 515.5	18129
 516.0	18194
 516.6	18171
 517.1	18216
 517.6	18200
 518.2	18179
 518.7	18126
 519.3	18180
 519.8	18233
 520.3	18236
 520.9	18194
 521.4	18204
 521.9	18263
 522.5	18185
 523.0	18223
 523.6	18260
 524.1	18117
 524.6	18170
 525.2	18196
 525.7	18231
 526.3	18143
 526.8	18235
 527.3	18174
 527.9	18194
 528.4	18172
 528.9	18222
 529.5	18230
 530.0	18204
 530.6	18233
 531.1	18236
 531.6	18142
 532.2	18252
 532.7	18190
 533.3	18210
 533.8	18316
 534.3	18334
 534.9	18315
 535.4	18248
 536.0	18306
 536.5	18333
 537.0	18285
 537.6	18298
 538.1	18335
 538.6	18345
 539.2	18282
 539.7	18285
 540.3	18373
 540.8	18330
 541.3	18282
 541.9	18309
 542.4	18314
 543.0	18368
 543.5	18326
 544.0	18302
 544.6	18351
 545.1	18357
 545.6	18391
 546.2	18375
 546.7	18287
 547.3	18351
 547.8	18325
 548.3	18384
 548.9	18301
 549.4	18304
 550.0	18280
 550.5	18338
 551.0	18387
 551.6	18333
 552.1	18356
 552.6	18353
 553.2	18338
 553.7	18312
 554.3	18342
 554.8	18405
 555.3	18279
 555.9	18340
 556.4	18297
 556.9	18385
 557.5	18404
 558.0	18354
 558.6	18328
 559.1	18403
 559.6	18378
 560.2	18369
 560.7	18359
 561.3	18326
 561.8	18303
 562.3	18410
 562.9	18388
 563.4	18410
 563.9	18405
 564.5	18396
 565.0	18378
 565.6	18396
 566.1	18393
 566.6	18395
 567.2	18382
 567.7	18478
 568.2	18388
 568.8	18398
 569.3	18366
 569.9	18436
 570.4	18422
 570.9	18394
 571.5	18381
 572.0	18375
 572.5	18430
 573.1	18371
 573.6	18418
 574.1	18404
 574.7	18396
 575.2	18362
 575.8	18395
 576.3	18460
 576.8	18423
 577.4	18428
 577.9	18437
 578.4	18387
 579.0	18396
 579.5	18479
 580.1	18403
 580.6	18397
 581.1	18463
 581.7	18475
 582.2	18405
 582.7	18446
 583.3	18484
 583.8	18441
 584.3	18386
 584.9	18443
 585.4	18444
 586.0	18409
 586.5	18436
 587.0	18390
 587.6	18459
 588.1	18402
 588.6	18475
 589.2	18410
 589.7	18425
 590.2	18417
 590.8	18415
 591.3	18436
 591.9	18390
 592.4	18447
 592.9	18391
 593.5	18384
 594.0	18383
 594.5	18406
 595.1	18395
 595.6	18383
 596.1	18445
 596.7	18410
 597.2	18454
 597.7	18398
 598.3	18410
 598.8	18388
 599.3	18413
 599.9	18393
 600.4	18397
 601.0	18402
 601.5	18394
 602.0	18379
 602.6	18338
 603.1	18355
 603.6	18350
 604.2	18457
 604.7	18356
 605.2	18421
 605.8	18345
 606.3	18362
 606.8	18427
 607.4	18397
 607.9	18421
 608.4	18359
 609.0	18395
 609.5	18426
 610.0	18399
 610.6	18487
 611.1	18399
 611.6	18405
 612.2	18402
 612.7	18454
 613.2	18441
 613.8	18355
 614.3	18379
 614.8	18423
 615.4	18342
 615.9	18410
 616.4	18457
 617.0	18395
 617.5	18481
 618.0	18479
 618.6	18392
 619.1	18403
 619.6	18471
 620.2	18446
 620.7	18484
 621.2	18433
 621.8	18461
 622.3	18470
 622.8	18418
 623.4	18443
 623.9	18492
 624.4	18461
 625.0	18450
 625.5	18453
 626.0	18463
 626.6	18502
 627.1	18497
 627.6	18455
 628.2	18417
 628.7	18451
 629.2	18441
 629.8	18470
 630.3	18493
 630.8	18482
 631.4	18469
 631.9	18500
 632.4	18401
 632.9	18437
 633.5	18443
 634.0	18412
 634.5	18510
 635.1	18444
 635.6	18430
 636.1	18424
 636.7	18492
 637.2	18488
 637.7	18405
 638.3	18514
 638.8	18514
 639.3	18527
 639.8	18489
 640.4	18519
 640.9	18537
 641.4	18454
 642.0	18450
 642.5	18475
 643.0	18449
 643.6	18527
 644.1	18489
 644.6	18504
 645.1	18543
 645.7	18520
 646.2	18491
 646.7	18499
 647.3	18530
 647.8	18517
 648.3	18505
 648.9	18535
 649.4	18447
 649.9	18516
 650.4	18517
 651.0	18548
 651.5	18557
 652.0	18601
 652.6	18529
 653.1	18605
 653.6	18517
 654.1	18594
 654.7	18532
 655.2	18600
 655.7	18633
 656.3	18637
 656.8	18575
 657.3	18619
 657.8	18574
 658.4	18550
 658.9	18552
 659.4	18638
 659.9	18620
 660.5	18591
 661.0	18628
 661.5	18671
 662.1	18621
 662.6	18628
 663.1	18596
 663.6	18670
 664.2	18631
 664.7	18597
 665.2	18525
 665.7	18637
 666.3	18615
 666.8	18627
 667.3	18629
 667.8	18586
 668.4	18624
 668.9	18633
 669.4	18618
 669.9	18659
 670.5	18594
 671.0	18613
 671.5	18571
 672.0	18639
 672.6	18651
 673.1	18673
 673.6	18591
 674.1	18632
 674.7	18623
 675.2	18680
 675.7	18540
 676.2	18557
 676.8	18613
 677.3	18633
 677.8	18564
 678.3	18683
 678.9	18620
 679.4	18577
 679.9	18638
 680.4	18651
 681.0	18620
 681.5	18655
 682.0	18641
 682.5	18663
 683.1	18580
 683.6	18640
 684.1	18583
 684.6	18685
 685.1	18629
 685.7	18653
 686.2	18614
 686.7	18596
 687.2	18585
 687.8	18652
 688.3	18595
 688.8	18630
 689.3	18576
 689.8	18599
 690.4	18599
 690.9	18610
 691.4	18599
 691.9	18637
 692.4	18591
 693.0	18657
 693.5	18634
 694.0	18612
 694.5	18606
 695.1	18587
 695.6	18558
 696.1	18629
 696.6	18609
 697.1	18625
 697.7	18651
 698.2	18591
 698.7	18613
 699.2	18569
 699.7	18577
 700.3	18563
 700.8	18543
 701.3	18661
 701.8	18621
 702.3	18568
 702.8	18581
 703.4	18555
 703.9	18570
 704.4	18575
 704.9	18541
 705.4	18553
 706.0	18660
 706.5	18645
 707.0	18570
 707.5	18564
 708.0	18593
 708.5	18556
 709.1	18622
 709.6	18594
 710.1	18572
 710.6	18549
 711.1	18564
 711.7	18594
 712.2	18601
 712.7	18607
 713.2	18593
 713.7	18599
 714.2	18567
 714.8	18646
 715.3	18599
 715.8	18599
 716.3	18610
 716.8	18524
 717.3	18514
 717.8	18625
 718.4	18630
 718.9	18569
 719.4	18648
 719.9	18566
 720.4	18604
 720.9	18609
 721.4	18606
 722.0	18619
 722.5	18611
 723.0	18598
 723.5	18605
 724.0	18567
 724.5	18569
 725.0	18575
 725.6	18517
 726.1	18559
 726.6	18673
 727.1	18612
 727.6	18649
 728.1	18666
 728.6	18626
 729.1	18609
 729.7	18599
 730.2	18628
 730.7	18663
 731.2	18685
 731.7	18680
 732.2	18679
 732.7	18660
 733.2	18708
 733.8	18685
 734.3	18706
 734.8	18672
 735.3	18692
 735.8	18670
 736.3	18640
 736.8	18669
 737.3	18705
 737.8	18650
 738.4	18642
 738.9	18601
 739.4	18683
 739.9	18666
 740.4	18667
 740.9	18670
 741.4	18658
 741.9	18655
 742.4	18672
 742.9	18659
 743.4	18749
 744.0	18674
 744.5	18669
 745.0	18691
 745.5	18771
 746.0	18743
 746.5	18752
 747.0	18708
 747.5	18698
 748.0	18673
 748.5	18686
 749.0	18714
 749.5	18796
 750.0	18649
 750.5	18710
 751.1	18732
 751.6	18731
 752.1	18729
 752.6	18707
 753.1	18741
 753.6	18685
 754.1	18663
 754.6	18708
 755.1	18678
 755.6	18690
 756.1	18626
 756.6	18728
 757.1	18703
 757.6	18691
 758.1	18666
 758.6	18693
 759.1	18631
 759.6	18670
 760.1	18626
 760.7	18612
 761.2	18692
 761.7	18635
 762.2	18631
 762.7	18692
 763.2	18557
 763.7	18655
 764.2	18595
 764.7	18614
 765.2	18652
 765.7	18635
 766.2	18603
 766.7	18651
 767.2	18615
 767.7	18638
 768.2	18625
 768.7	18600
 769.2	18605
 769.7	18658
 770.2	18628
 770.7	18635
 771.2	18628
 771.7	18601
 772.2	18623
 772.7	18671
 773.2	18656
 773.7	18615
 774.2	18562
 774.7	18624
 775.2	18623
 775.7	18605
 776.2	18605
 776.7	18635
 777.2	18568
 777.7	18640
 778.2	18634
 778.7	18671
 779.2	18686
 779.7	18721
 780.2	18568
 780.7	18635
 781.2	18649
 781.7	18728
 782.2	18646
 782.6	18721
 783.1	18729
 783.6	18700
 784.1	18676
 784.6	18654
 785.1	18673
 785.6	18658
 786.1	18705
 786.6	18715
 787.1	18662
 787.6	18673
 788.1	18670
 788.6	18667
 789.1	18662
 789.6	18707
 790.1	18718
 790.6	18721
 791.1	18637
 791.6	18645
 792.0	18682
 792.5	18714
 793.0	18702
 793.5	18703
 794.0	18641
 794.5	18733
 795.0	18742
 795.5	18712
 796.0	18729
 796.5	18686
 797.0	18721
 797.5	18763
 798.0	18629
 798.4	18682
 798.9	18675
 799.4	18704
 799.9	18714
 800.4	18591
 800.9	18694
 801.4	18767
 801.9	18739
 802.4	18687
 802.9	18757
 803.3	18757
 803.8	18735
 804.3	18694
 804.8	18763
 805.3	18727
 805.8	18724
 806.3	18733
 806.8	18723
 807.2	18730
 807.7	18706
 808.2	18746
 808.7	18671
 809.2	18694
 809.7	18638
 810.2	18706
 810.7	18663
 811.1	18681
 811.6	18693
 812.1	18653
 812.6	18633
 813.1	18684
 813.6	18706
 814.1	18685
 814.5	18659
 815.0	18685
 815.5	18657
 816.0	18616
 816.5	18687
 817.0	18645
 817.4	18633
 817.9	18675
 818.4	18619
 818.9	18703
 819.4	18661
 819.9	18653
 820.3	18628
 820.8	18633
 821.3	18639
 821.8	18647
 822.3	18614
 822.7	18600
 823.2	18657
 823.7	18619
 824.2	18623
 824.7	18608
 825.2	18633
 825.6	18614
 826.1	18611
 826.6	18670
 827.1	18657
 827.6	18652
 828.0	18599
 828.5	18579
 829.0	18615
 829.5	18566
 829.9	18575
 830.4	18631
 830.9	18620
 831.4	18647
 831.9	18614
 832.3	18693
 832.8	18646
 833.3	18640
 833.8	18722
 834.2	18717
 834.7	18564
 835.2	18659
 835.7	18669
 836.1	18663
 836.6	18651
 837.1	18656
 837.6	18660
 838.0	18702
 838.5	18725
 839.0	18730
 839.5	18723
 839.9	18648
 840.4	18652
 840.9	18625
 841.4	18669
 841.8	18689
 842.3	18706
 842.8	18733
 843.3	18726
 843.7	18637
 844.2	18627
 844.7	18716
 845.1	18690
 845.6	18615
 846.1	18639
 846.6	18670
 847.0	18577
 847.5	18622
 848.0	18617
 848.4	18658
 848.9	18630
 849.4	18620
 849.8	18648
 850.3	18643
 850.8	18691
 851.3	18653
 851.7	18654
 852.2	18667
 852.7	18661
 853.1	18643
 853.6	18597
 854.1	18641
 854.5	18618
 855.0	18605
 855.5	18603
 855.9	18670
 856.4	18659
 856.9	18582
 857.3	18638
 857.8	18622
 858.3	18670
 858.7	18623
 859.2	18637
 859.7	18628
 860.1	18688
 860.6	18671
 861.1	18613
 861.5	18659
 862.0	18674
 862.4	18647
 862.9	18617
 863.4	18663
 863.8	18661
 864.3	18665
 864.8	18590
 865.2	18641
 865.7	18669
 866.1	18679
 866.6	18608
 867.1	18683
 867.5	18665
 868.0	18647
 868.5	18607
 868.9	18617
 869.4	18720
 869.8	18678
 870.3	18632
 870.8	18701
 871.2	18652
 871.7	18650
 872.1	18598
 872.6	18660
 873.0	18640
 873.5	18721
 874.0	18731
 874.4	18643
 874.9	18710
 875.3	18707
 875.8	18657
 876.2	18499
 876.7	18393
 877.2	18078
 877.6	17673
 878.1	17253
